,TP9,AF7,AF8,TP10,Right AUX,lsl_time_stamp
0,133.36996459960938,64.87179565429688,93.47985076904297,25.787546157836914,,427000.56515126815
1,0.0,9.670330047607422,101.94139099121094,25.787546157836914,,427000.56905868853
2,181.3186798095703,60.43955993652344,153.11355590820312,25.787546157836914,,427000.5729661089
3,421.8681335449219,164.39559936523438,161.57508850097656,25.787546157836914,,427000.5768735293
4,167.2161102294922,111.61172485351562,149.4871826171875,25.787546157836914,,427000.5807809497
5,0.0,11.282051086425781,184.13919067382812,25.787546157836914,,427000.58468837006
6,80.5860824584961,52.78388214111328,240.14651489257812,25.787546157836914,,427000.58859579044
7,404.945068359375,164.7985382080078,186.55677795410156,25.787546157836914,,427000.5925032109
8,328.3882751464844,121.68498229980469,121.28205108642578,25.787546157836914,,427000.59641063126
9,4.835165023803711,21.758241653442383,100.73259735107422,25.787546157836914,,427000.60031805164
10,33.0402946472168,14.908425331115723,111.61172485351562,25.787546157836914,,427000.604225472
11,357.3992614746094,103.55311584472656,142.63735961914062,25.787546157836914,,427000.6081328924
12,375.9340515136719,152.7106170654297,147.06959533691406,25.787546157836914,,427000.6120403128
13,41.5018310546875,52.78388214111328,118.86447143554688,25.787546157836914,,427000.61594773317
14,0.0,8.864468574523926,101.94139099121094,25.787546157836914,,427000.61985515355
15,230.07325744628906,77.76556396484375,140.62271118164062,25.787546157836914,,427000.62376257393
16,289.70697021484375,188.57142639160156,199.45054626464844,25.787546157836914,,427000.6276699943
17,41.098899841308594,110.0,205.89743041992188,25.787546157836914,,427000.6315774147
18,0.0,10.879120826721191,136.1904754638672,25.787546157836914,,427000.6354848351
19,162.7838897705078,51.17216110229492,132.1611785888672,25.787546157836914,,427000.6393922555
20,292.5274658203125,186.95970153808594,209.92674255371094,25.787546157836914,,427000.6432996759
21,70.5128173828125,144.24908447265625,203.07691955566406,25.787546157836914,,427000.6472070963
22,0.0,16.117216110229492,94.68864440917969,25.787546157836914,,427000.65111451666
23,102.74725341796875,22.16117286682129,98.31501770019531,25.787546157836914,,427000.65502193704
24,347.72894287109375,144.65200805664062,177.6923065185547,25.787546157836914,,427000.6589293574
25,255.05494689941406,145.86080932617188,160.36630249023438,25.787546157836914,,427000.6628367778
26,14.102563858032227,26.593406677246094,85.01831817626953,25.787546157836914,,427000.6667441982
27,40.69597244262695,5.238095283508301,88.64469146728516,25.787546157836914,,427000.67065161857
28,91.06227111816406,140.62271118164062,226.44688415527344,25.787546157836914,,427000.67455903895
29,89.45054626464844,213.95603942871094,257.0696105957031,25.787546157836914,,427000.6784664593
30,67.28937530517578,54.79853439331055,107.5824203491211,25.787546157836914,,427000.6823738797
31,0.0,5.641025543212891,84.21245574951172,25.787546157836914,,427000.68628130015
32,148.27838134765625,84.21245574951172,161.1721649169922,25.787546157836914,,427000.69018872053
33,394.0659484863281,168.02197265625,170.43955993652344,25.787546157836914,,427000.6940961409
34,177.2893829345703,80.5860824584961,103.95604705810547,25.787546157836914,,427000.6980035613
35,0.0,8.461538314819336,114.02930450439453,25.787546157836914,,427000.7019109817
36,96.70330047607422,62.4542121887207,190.989013671875,25.787546157836914,,427000.70581840206
37,399.70697021484375,169.23077392578125,188.1685028076172,25.787546157836914,,427000.70972582244
38,265.1282043457031,111.61172485351562,115.64102935791016,25.787546157836914,,427000.7136332428
39,4.432234287261963,14.102563858032227,91.06227111816406,25.787546157836914,,427000.7175406632
40,8.864468574523926,31.428571701049805,167.2161102294922,25.787546157836914,,427000.7214480836
41,260.29302978515625,149.89010620117188,210.3296661376953,25.787546157836914,,427000.72535550396
42,325.5677795410156,143.84616088867188,135.38461303710938,25.787546157836914,,427000.72926292435
43,36.263736724853516,28.205127716064453,108.38827514648438,25.787546157836914,,427000.7331703448
44,0.0,11.684981346130371,186.55677795410156,25.787546157836914,,427000.73707776517
45,289.70697021484375,97.5091552734375,186.15383911132812,25.787546157836914,,427000.74098518555
46,424.68865966796875,156.3369903564453,136.996337890625,25.787546157836914,,427000.74489260593
47,109.5970687866211,56.410255432128906,118.86447143554688,25.787546157836914,,427000.7488000263
48,0.0,8.058608055114746,111.61172485351562,25.787546157836914,,427000.7527074467
49,188.974365234375,70.10989379882812,141.8314971923828,25.787546157836914,,427000.7566148671
50,368.27838134765625,176.08058166503906,173.6630096435547,25.787546157836914,,427000.76052228746
51,152.7106170654297,104.35897064208984,171.24542236328125,25.787546157836914,,427000.76442970784
52,0.0,14.505494117736816,169.63369750976562,25.787546157836914,,427000.7683371282
53,125.71428680419922,37.875457763671875,156.73992919921875,25.787546157836914,,427000.7722445486
54,436.3736267089844,142.63735961914062,149.4871826171875,25.787546157836914,,427000.776151969
55,257.0696105957031,145.86080932617188,192.60073852539062,25.787546157836914,,427000.7800593894
56,0.0,43.91941452026367,171.24542236328125,25.787546157836914,,427000.7839668098
57,66.88644409179688,10.073260307312012,103.95604705810547,25.787546157836914,,427000.7878742302
58,370.29302978515625,117.25274658203125,152.7106170654297,25.787546157836914,,427000.79178165057
59,305.4212341308594,159.96336364746094,164.7985382080078,25.787546157836914,,427000.79568907095
60,16.5201473236084,43.516483306884766,102.74725341796875,25.787546157836914,,427000.7995964913
61,12.087912559509277,5.641025543212891,85.82417297363281,25.787546157836914,,427000.8035039117
62,230.87911987304688,91.86813354492188,154.72528076171875,25.787546157836914,,427000.8074113321
63,309.4505615234375,178.90109252929688,184.13919067382812,25.787546157836914,,427000.8113187525
64,66.48351287841797,79.78022003173828,149.89010620117188,25.787546157836914,,427000.81522617285
65,0.0,5.641025543212891,135.7875518798828,25.787546157836914,,427000.81913359324
66,131.75823974609375,68.9011001586914,169.23077392578125,25.787546157836914,,427000.8230410136
67,123.29669952392578,226.44688415527344,276.8132019042969,25.787546157836914,,427000.82694843406
68,21.355310440063477,142.63735961914062,209.12088012695312,25.787546157836914,,427000.83085585444
69,23.369962692260742,4.835165023803711,72.52747344970703,25.787546157836914,,427000.8347632748
70,33.44322204589844,44.32234573364258,139.41392517089844,25.787546157836914,,427000.8386706952
71,346.9230651855469,155.5311279296875,185.34799194335938,25.787546157836914,,427000.8425781156
72,314.68865966796875,126.11721801757812,132.56410217285156,25.787546157836914,,427000.84648553596
73,5.641025543212891,19.743589401245117,96.70330047607422,25.787546157836914,,427000.85039295634
74,11.684981346130371,22.96703338623047,136.1904754638672,25.787546157836914,,427000.8543003767
75,294.1391906738281,127.72893524169922,184.13919067382812,25.787546157836914,,427000.8582077971
76,279.23077392578125,176.88644409179688,187.36264038085938,25.787546157836914,,427000.8621152175
77,15.714285850524902,56.81318664550781,122.0879135131836,25.787546157836914,,427000.86602263787
78,0.0,13.699633598327637,153.5164794921875,25.787546157836914,,427000.86993005825
79,199.04762268066406,110.0,232.89376831054688,25.787546157836914,,427000.8738374787
80,373.5164794921875,178.09524536132812,174.87179565429688,25.787546157836914,,427000.8777448991
81,121.28205108642578,78.16849517822266,111.61172485351562,25.787546157836914,,427000.88165231945
82,0.0,10.073260307312012,114.02930450439453,25.787546157836914,,427000.88555973984
83,166.00732421875,51.978023529052734,153.91941833496094,25.787546157836914,,427000.8894671602
84,462.967041015625,149.4871826171875,143.44322204589844,25.787546157836914,,427000.8933745806
85,245.7875518798828,102.34432220458984,121.68498229980469,25.787546157836914,,427000.897282001
86,0.0,14.505494117736816,100.32967376708984,25.787546157836914,,427000.90118942136
87,86.22710418701172,27.80219841003418,121.68498229980469,25.787546157836914,,427000.90509684174
88,305.8241882324219,149.4871826171875,186.55677795410156,25.787546157836914,,427000.9090042621
89,237.72894287109375,155.93406677246094,180.5128173828125,25.787546157836914,,427000.9129116825
90,13.699633598327637,38.68132019042969,168.02197265625,25.787546157836914,,427000.9168191029
91,20.146520614624023,11.684981346130371,141.8314971923828,25.787546157836914,,427000.9207265233
92,350.5494384765625,93.47985076904297,136.59339904785156,25.787546157836914,,427000.9246339437
93,357.3992614746094,159.56044006347656,164.7985382080078,25.787546157836914,,427000.9285413641
94,24.578754425048828,60.842491149902344,120.47618865966797,25.787546157836914,,427000.9324487845
95,0.0,8.461538314819336,110.4029312133789,25.787546157836914,,427000.93635620485
96,243.36996459960938,69.30403137207031,149.4871826171875,25.787546157836914,,427000.94026362523
97,326.3736267089844,183.73626708984375,194.2124481201172,25.787546157836914,,427000.9441710456
98,29.41391944885254,112.0146484375,166.41026306152344,25.787546157836914,,427000.948078466
99,0.0,6.849816799163818,87.43589782714844,25.787546157836914,,427000.9519858864
100,104.76190185546875,56.00732421875,147.4725341796875,25.787546157836914,,427000.95589330676
101,171.24542236328125,210.73260498046875,252.63735961914062,25.787546157836914,,427000.95980072714
102,41.5018310546875,161.57508850097656,219.59707641601562,25.787546157836914,,427000.9637081475
103,10.879120826721191,14.908425331115723,83.80952453613281,25.787546157836914,,427000.96761556796
104,67.28937530517578,20.146520614624023,102.34432220458984,25.787546157836914,,427000.97152298834
105,331.20880126953125,135.7875518798828,178.09524536132812,25.787546157836914,,427000.9754304087
106,316.70330810546875,145.05494689941406,149.89010620117188,25.787546157836914,,427000.9793378291
107,46.739925384521484,27.399267196655273,76.15384674072266,25.787546157836914,,427000.9832452495
108,0.0,12.087912559509277,101.53845977783203,25.787546157836914,,427000.98715266987
109,207.91209411621094,101.94139099121094,172.85714721679688,25.787546157836914,,427000.99106009025
110,319.5238037109375,176.08058166503906,183.3333282470703,25.787546157836914,,427000.99496751063
111,39.08424758911133,76.55677795410156,136.1904754638672,25.787546157836914,,427000.998874931
112,17.72893714904785,0.0,123.69963073730469,25.787546157836914,,427001.0027823514
113,15.714285850524902,111.20879364013672,259.4871826171875,25.787546157836914,,427001.0066897718
114,178.90109252929688,216.77655029296875,259.0842590332031,25.787546157836914,,427001.01059719216
115,193.003662109375,89.04762268066406,105.56776428222656,25.787546157836914,,427001.01450461254
116,0.0,12.087912559509277,95.4945068359375,25.787546157836914,,427001.018412033
117,121.68498229980469,38.68132019042969,150.6959686279297,25.787546157836914,,427001.02231945336
118,452.0879211425781,142.63735961914062,155.5311279296875,25.787546157836914,,427001.02622687374
119,295.3479919433594,116.84981536865234,115.64102935791016,25.787546157836914,,427001.0301342941
120,0.0,19.743589401245117,99.12088012695312,25.787546157836914,,427001.0340417145
121,50.769229888916016,16.923076629638672,128.13186645507812,25.787546157836914,,427001.0379491349
122,372.71063232421875,114.02930450439453,154.72528076171875,25.787546157836914,,427001.04185655527
123,353.3699645996094,148.6813201904297,134.1758270263672,25.787546157836914,,427001.04576397565
124,36.263736724853516,41.5018310546875,158.75457763671875,25.787546157836914,,427001.04967139603
125,0.0,8.461538314819336,211.13552856445312,25.787546157836914,,427001.0535788164
126,197.43589782714844,99.12088012695312,193.40660095214844,25.787546157836914,,427001.0574862368
127,365.8608093261719,170.03663635253906,157.14285278320312,25.787546157836914,,427001.0613936572
128,118.05860900878906,68.9011001586914,154.3223419189453,25.787546157836914,,427001.0653010776
129,0.0,11.282051086425781,143.84616088867188,25.787546157836914,,427001.069208498
130,190.1831512451172,59.230770111083984,126.92308044433594,25.787546157836914,,427001.0731159184
131,443.6263732910156,161.57508850097656,157.54579162597656,25.787546157836914,,427001.07702333876
132,173.6630096435547,106.37362670898438,135.7875518798828,25.787546157836914,,427001.08093075914
133,0.0,15.714285850524902,90.65933990478516,25.787546157836914,,427001.0848381795
134,122.4908447265625,29.010988235473633,110.80586242675781,25.787546157836914,,427001.0887455999
135,373.9194030761719,149.89010620117188,169.23077392578125,25.787546157836914,,427001.0926530203
136,198.24176025390625,154.72528076171875,187.76556396484375,25.787546157836914,,427001.09656044067
137,0.0,32.63736343383789,133.36996459960938,25.787546157836914,,427001.10046786105
138,67.28937530517578,6.4468865394592285,101.13552856445312,25.787546157836914,,427001.10437528143
139,257.4725341796875,124.1025619506836,178.09524536132812,25.787546157836914,,427001.1082827018
140,146.6666717529297,209.5238037109375,250.62271118164062,25.787546157836914,,427001.11219012225
141,1.6117216348648071,68.9011001586914,151.5018310546875,25.787546157836914,,427001.11609754263
142,33.0402946472168,0.0,77.36264038085938,25.787546157836914,,427001.120004963
143,122.8937759399414,102.74725341796875,182.93040466308594,25.787546157836914,,427001.1239123834
144,247.39926147460938,195.42124938964844,219.1941375732422,25.787546157836914,,427001.1278198038
145,137.39926147460938,77.36264038085938,113.62637329101562,25.787546157836914,,427001.13172722416
146,0.0,6.4468865394592285,80.5860824584961,25.787546157836914,,427001.13563464454
147,89.45054626464844,68.9011001586914,151.90475463867188,25.787546157836914,,427001.1395420649
148,274.3955993652344,192.60073852539062,214.76190185546875,25.787546157836914,,427001.1434494853
149,138.2051239013672,129.74359130859375,174.87179565429688,25.787546157836914,,427001.1473569057
150,14.908425331115723,7.252747058868408,89.85347747802734,25.787546157836914,,427001.15126432606
151,0.0,60.842491149902344,174.06593322753906,25.787546157836914,,427001.15517174645
152,227.25274658203125,192.1977996826172,252.63735961914062,25.787546157836914,,427001.1590791669
153,311.8681335449219,136.996337890625,136.996337890625,25.787546157836914,,427001.16298658727
154,36.263736724853516,22.564102172851562,76.55677795410156,25.787546157836914,,427001.16689400765
155,0.0,16.923076629638672,138.60806274414062,25.787546157836914,,427001.17080142803
156,239.74359130859375,113.62637329101562,193.40660095214844,25.787546157836914,,427001.1747088484
157,389.6336975097656,155.93406677246094,139.8168487548828,25.787546157836914,,427001.1786162688
158,91.06227111816406,48.75457763671875,97.5091552734375,25.787546157836914,,427001.1825236892
159,0.0,6.849816799163818,136.1904754638672,25.787546157836914,,427001.18643110956
160,133.77288818359375,86.63003540039062,197.43589782714844,25.787546157836914,,427001.19033852994
161,291.3186950683594,188.974365234375,193.40660095214844,25.787546157836914,,427001.1942459503
162,133.77288818359375,90.65933990478516,141.42857360839844,25.787546157836914,,427001.1981533707
163,0.0,9.267398834228516,161.57508850097656,25.787546157836914,,427001.2020607911
164,145.45787048339844,46.336997985839844,162.7838897705078,25.787546157836914,,427001.2059682115
165,463.77288818359375,151.5018310546875,143.84616088867188,25.787546157836914,,427001.2098756319
166,268.3516540527344,116.44688415527344,139.8168487548828,25.787546157836914,,427001.2137830523
167,0.0,20.146520614624023,103.55311584472656,25.787546157836914,,427001.21769047267
168,74.94505310058594,20.146520614624023,104.35897064208984,25.787546157836914,,427001.22159789305
169,400.1098937988281,122.0879135131836,147.87545776367188,25.787546157836914,,427001.2255053134
170,301.3919372558594,156.3369903564453,164.39559936523438,25.787546157836914,,427001.2294127338
171,8.864468574523926,45.128204345703125,130.54945373535156,25.787546157836914,,427001.2333201542
172,0.0,11.282051086425781,143.84616088867188,25.787546157836914,,427001.2372275746
173,224.8351593017578,99.92674255371094,180.5128173828125,25.787546157836914,,427001.24113499495
174,286.8864440917969,198.64468383789062,214.76190185546875,25.787546157836914,,427001.24504241534
175,18.53479766845703,105.97069549560547,220.8058624267578,25.787546157836914,,427001.2489498357
176,0.0,5.641025543212891,114.02930450439453,25.787546157836914,,427001.25285725616
177,207.91209411621094,66.48351287841797,127.72893524169922,25.787546157836914,,427001.25676467654
178,407.3626403808594,170.43955993652344,174.87179565429688,25.787546157836914,,427001.2606720969
179,168.8278350830078,95.8974380493164,118.46154022216797,25.787546157836914,,427001.2645795173
180,0.0,7.252747058868408,75.34798431396484,25.787546157836914,,427001.2684869377
181,86.63003540039062,51.17216110229492,146.26373291015625,25.787546157836914,,427001.27239435806
182,327.9853515625,176.88644409179688,198.64468383789062,25.787546157836914,,427001.27630177845
183,251.42857360839844,129.3406524658203,140.62271118164062,25.787546157836914,,427001.2802091988
184,11.282051086425781,16.5201473236084,111.61172485351562,25.787546157836914,,427001.2841166192
185,29.010988235473633,19.340660095214844,141.025634765625,25.787546157836914,,427001.2880240396
186,35.05494689941406,178.09524536132812,268.3516540527344,25.787546157836914,,427001.29193146
187,76.15384674072266,197.03297424316406,240.54945373535156,25.787546157836914,,427001.29583888035
188,62.4542121887207,31.831501007080078,75.75091552734375,25.787546157836914,,427001.2997463008
189,0.0,10.476190567016602,104.35897064208984,25.787546157836914,,427001.3036537212
190,236.11721801757812,94.68864440917969,171.24542236328125,25.787546157836914,,427001.30756114156
191,434.3589782714844,159.56044006347656,145.05494689941406,25.787546157836914,,427001.31146856194
192,140.62271118164062,62.4542121887207,89.45054626464844,25.787546157836914,,427001.3153759823
193,0.0,10.073260307312012,101.13552856445312,25.787546157836914,,427001.3192834027
194,183.3333282470703,61.24542236328125,153.5164794921875,25.787546157836914,,427001.3231908231
195,436.77655029296875,163.58973693847656,158.35165405273438,25.787546157836914,,427001.32709824346
196,186.55677795410156,107.9853515625,135.7875518798828,25.787546157836914,,427001.33100566384
197,0.0,13.296703338623047,170.8424835205078,25.787546157836914,,427001.3349130842
198,112.82051086425781,39.08424758911133,211.53846740722656,25.787546157836914,,427001.3388205046
199,438.3882751464844,151.5018310546875,165.2014617919922,25.787546157836914,,427001.342727925
200,315.4945068359375,124.5054931640625,124.5054931640625,25.787546157836914,,427001.3466353454
201,2.4175825119018555,21.758241653442383,105.97069549560547,25.787546157836914,,427001.3505427658
202,33.846153259277344,14.505494117736816,118.46154022216797,25.787546157836914,,427001.3544501862
203,352.967041015625,102.74725341796875,143.44322204589844,25.787546157836914,,427001.3583576066
204,372.30767822265625,148.27838134765625,141.42857360839844,25.787546157836914,,427001.36226502695
205,39.08424758911133,50.769229888916016,135.38461303710938,25.787546157836914,,427001.36617244733
206,0.0,9.670330047607422,117.65567779541016,25.787546157836914,,427001.3700798677
207,242.56410217285156,76.55677795410156,134.981689453125,25.787546157836914,,427001.3739872881
208,296.5567626953125,185.75091552734375,200.6593475341797,25.787546157836914,,427001.3778947085
209,43.516483306884766,101.53845977783203,166.8131866455078,25.787546157836914,,427001.38180212886
210,0.0,9.670330047607422,97.9120864868164,25.787546157836914,,427001.38570954924
211,177.2893829345703,50.36629867553711,122.4908447265625,25.787546157836914,,427001.3896169696
212,348.5347900390625,177.6923065185547,185.34799194335938,25.787546157836914,,427001.39352439006
213,85.01831817626953,146.26373291015625,210.73260498046875,25.787546157836914,,427001.39743181044
214,0.0,19.340660095214844,119.26740264892578,25.787546157836914,,427001.4013392308
215,108.79120635986328,20.146520614624023,103.15018463134766,25.787546157836914,,427001.4052466512
216,234.10256958007812,167.61904907226562,217.1794891357422,25.787546157836914,,427001.4091540716
217,125.71428680419922,171.24542236328125,207.5091552734375,25.787546157836914,,427001.41306149197
218,17.326007843017578,25.787546157836914,88.24176025390625,25.787546157836914,,427001.41696891235
219,38.68132019042969,5.641025543212891,88.64469146728516,25.787546157836914,,427001.42087633273
220,94.28571319580078,141.025634765625,224.43223571777344,25.787546157836914,,427001.4247837531
221,130.54945373535156,204.6886444091797,238.93772888183594,25.787546157836914,,427001.4286911735
222,79.78022003173828,50.36629867553711,95.8974380493164,25.787546157836914,,427001.4325985939
223,0.0,6.043956279754639,81.79486846923828,25.787546157836914,,427001.43650601426
224,132.56410217285156,88.24176025390625,166.00732421875,25.787546157836914,,427001.4404134347
225,367.0696105957031,176.4835205078125,180.10989379882812,25.787546157836914,,427001.4443208551
226,173.6630096435547,83.4065933227539,104.35897064208984,25.787546157836914,,427001.44822827546
227,0.0,9.267398834228516,86.63003540039062,25.787546157836914,,427001.45213569584
228,122.0879135131836,56.81318664550781,152.3076934814453,25.787546157836914,,427001.4560431162
229,415.4212341308594,165.60440063476562,174.06593322753906,25.787546157836914,,427001.4599505366
230,245.38461303710938,117.65567779541016,123.29669952392578,25.787546157836914,,427001.463857957
231,10.476190567016602,7.655677795410156,105.97069549560547,25.787546157836914,,427001.46776537737
232,0.0,61.64834976196289,234.90843200683594,25.787546157836914,,427001.47167279775
233,228.05860900878906,191.39193725585938,267.5457763671875,25.787546157836914,,427001.47558021813
234,325.5677795410156,147.4725341796875,141.8314971923828,25.787546157836914,,427001.4794876385
235,29.010988235473633,33.846153259277344,130.54945373535156,25.787546157836914,,427001.4833950589
236,3.2234432697296143,11.282051086425781,147.87545776367188,25.787546157836914,,427001.4873024793
237,309.4505615234375,91.86813354492188,147.87545776367188,25.787546157836914,,427001.4912098997
238,427.5091552734375,155.5311279296875,139.41392517089844,25.787546157836914,,427001.4951173201
239,112.4175796508789,56.81318664550781,116.84981536865234,25.787546157836914,,427001.4990247405
240,0.0,8.058608055114746,114.83516693115234,25.787546157836914,,427001.50293216086
241,193.40660095214844,69.30403137207031,139.8168487548828,25.787546157836914,,427001.50683958124
242,437.5824279785156,163.58973693847656,153.5164794921875,25.787546157836914,,427001.5107470016
243,186.95970153808594,93.88278198242188,132.1611785888672,25.787546157836914,,427001.514654422
244,0.0,10.476190567016602,137.8022003173828,25.787546157836914,,427001.5185618424
245,75.75091552734375,53.589744567871094,180.10989379882812,25.787546157836914,,427001.52246926277
246,310.6593322753906,173.26007080078125,191.39193725585938,25.787546157836914,,427001.52637668315
247,215.56776428222656,156.73992919921875,206.3003692626953,25.787546157836914,,427001.53028410353
248,0.0,46.739925384521484,201.06227111816406,25.787546157836914,,427001.5341915239
249,67.69230651855469,12.087912559509277,129.74359130859375,25.787546157836914,,427001.53809894435
250,380.76922607421875,118.46154022216797,150.6959686279297,25.787546157836914,,427001.54200636473
251,316.70330810546875,158.75457763671875,163.58973693847656,25.787546157836914,,427001.5459137851
252,20.952381134033203,41.904762268066406,99.92674255371094,25.787546157836914,,427001.5498212055
253,10.879120826721191,6.043956279754639,85.01831817626953,25.787546157836914,,427001.5537286259
254,244.981689453125,90.65933990478516,154.3223419189453,25.787546157836914,,427001.55763604626
255,321.94140625,178.4981689453125,181.72161865234375,25.787546157836914,,427001.56154346664
256,64.87179565429688,80.5860824584961,154.3223419189453,25.787546157836914,,427001.565450887
257,2.8205127716064453,4.432234287261963,123.69963073730469,25.787546157836914,,427001.5693583074
258,124.9084243774414,71.31867980957031,156.73992919921875,25.787546157836914,,427001.5732657278
259,193.40660095214844,209.12088012695312,247.8022003173828,25.787546157836914,,427001.57717314817
260,97.5091552734375,122.4908447265625,162.38095092773438,25.787546157836914,,427001.58108056855
261,31.428571701049805,2.8205127716064453,84.21245574951172,25.787546157836914,,427001.584987989
262,0.0,56.81318664550781,184.54212951660156,25.787546157836914,,427001.58889540937
263,235.3113555908203,183.73626708984375,228.05860900878906,25.787546157836914,,427001.59280282975
264,304.6153869628906,130.14651489257812,132.56410217285156,25.787546157836914,,427001.59671025013
265,14.908425331115723,19.340660095214844,74.54212188720703,25.787546157836914,,427001.6006176705
266,12.490842819213867,19.340660095214844,122.8937759399414,25.787546157836914,,427001.6045250909
267,310.25640869140625,122.8937759399414,177.2893829345703,25.787546157836914,,427001.6084325113
268,290.1098937988281,176.08058166503906,182.12454223632812,25.787546157836914,,427001.61233993166
269,22.564102172851562,53.99267578125,132.1611785888672,25.787546157836914,,427001.61624735204
270,0.0,13.296703338623047,167.61904907226562,25.787546157836914,,427001.6201547724
271,194.61538696289062,114.43223571777344,237.72894287109375,25.787546157836914,,427001.6240621928
272,439.19415283203125,171.24542236328125,158.75457763671875,25.787546157836914,,427001.6279696132
273,174.06593322753906,69.70696258544922,95.8974380493164,25.787546157836914,,427001.6318770336
274,0.0,11.684981346130371,102.34432220458984,25.787546157836914,,427001.635784454
275,177.6923065185547,53.18681335449219,138.2051239013672,25.787546157836914,,427001.6396918744
276,398.0952453613281,170.43955993652344,171.64834594726562,25.787546157836914,,427001.64359929477
277,152.3076934814453,123.29669952392578,159.1575164794922,25.787546157836914,,427001.64750671515
278,0.0,14.102563858032227,128.13186645507812,25.787546157836914,,427001.65141413553
279,91.86813354492188,26.996337890625,139.8168487548828,25.787546157836914,,427001.6553215559
280,309.8534851074219,152.7106170654297,187.36264038085938,25.787546157836914,,427001.6592289763
281,244.981689453125,157.54579162597656,177.6923065185547,25.787546157836914,,427001.6631363967
282,13.699633598327637,37.06959533691406,163.99267578125,25.787546157836914,,427001.66704381705
283,24.578754425048828,11.684981346130371,145.86080932617188,25.787546157836914,,427001.67095123744
284,360.6227111816406,95.0915756225586,138.2051239013672,25.787546157836914,,427001.6748586578
285,363.040283203125,164.7985382080078,165.2014617919922,25.787546157836914,,427001.67876607826
286,20.549449920654297,65.67765808105469,127.72893524169922,25.787546157836914,,427001.68267349864
287,0.0,5.641025543212891,87.03296661376953,25.787546157836914,,427001.686580919
288,225.23809814453125,75.75091552734375,136.1904754638672,25.787546157836914,,427001.6904883394
289,308.6446838378906,191.39193725585938,204.2857208251953,25.787546157836914,,427001.6943957598
290,65.67765808105469,105.16483306884766,149.08424377441406,25.787546157836914,,427001.69830318016
291,0.0,6.043956279754639,101.53845977783203,25.787546157836914,,427001.70221060055
292,88.24176025390625,59.63370132446289,174.06593322753906,25.787546157836914,,427001.7061180209
293,157.94871520996094,213.95603942871094,257.8754577636719,25.787546157836914,,427001.7100254413
294,46.336997985839844,171.64834594726562,248.60806274414062,25.787546157836914,,427001.7139328617
295,7.655677795410156,19.743589401245117,113.62637329101562,25.787546157836914,,427001.7178402821
296,76.95970916748047,18.53479766845703,101.13552856445312,25.787546157836914,,427001.72174770245
297,355.3846130371094,138.2051239013672,174.87179565429688,25.787546157836914,,427001.7256551229
298,330.80584716796875,146.26373291015625,146.6666717529297,25.787546157836914,,427001.7295625433
299,49.56044006347656,27.80219841003418,75.34798431396484,25.787546157836914,,427001.73346996366
300,0.0,10.879120826721191,97.9120864868164,25.787546157836914,,427001.73737738404
301,215.970703125,107.17948913574219,176.4835205078125,25.787546157836914,,427001.7412848044
302,388.8278503417969,166.8131866455078,159.56044006347656,25.787546157836914,,427001.7451922248
303,113.62637329101562,56.81318664550781,92.27106475830078,25.787546157836914,,427001.7490996452
304,0.0,5.641025543212891,126.52014923095703,25.787546157836914,,427001.75300706556
305,85.01831817626953,101.13552856445312,234.5054931640625,25.787546157836914,,427001.75691448594
306,255.86080932617188,207.91209411621094,233.2967071533203,25.787546157836914,,427001.7608219063
307,124.1025619506836,105.56776428222656,133.77288818359375,25.787546157836914,,427001.7647293267
308,0.0,9.670330047607422,111.61172485351562,25.787546157836914,,427001.7686367471
309,126.52014923095703,51.57509231567383,178.09524536132812,25.787546157836914,,427001.7725441675
310,453.69964599609375,163.1868133544922,166.8131866455078,25.787546157836914,,427001.7764515879
311,301.79486083984375,118.46154022216797,112.82051086425781,25.787546157836914,,427001.7803590083
312,0.0,19.340660095214844,98.71794891357422,25.787546157836914,,427001.7842664287
313,56.00732421875,17.326007843017578,129.74359130859375,25.787546157836914,,427001.78817384905
314,384.79852294921875,116.04395294189453,154.3223419189453,25.787546157836914,,427001.79208126944
315,365.4578857421875,149.89010620117188,129.3406524658203,25.787546157836914,,427001.7959886898
316,32.63736343383789,41.5018310546875,158.35165405273438,25.787546157836914,,427001.7998961102
317,0.0,9.267398834228516,196.63003540039062,25.787546157836914,,427001.8038035306
318,289.30401611328125,87.03296661376953,155.5311279296875,25.787546157836914,,427001.80771095096
319,441.6117248535156,160.36630249023438,144.24908447265625,25.787546157836914,,427001.81161837134
320,126.11721801757812,69.70696258544922,114.83516693115234,25.787546157836914,,427001.8155257917
321,0.0,9.670330047607422,120.07325744628906,25.787546157836914,,427001.81943321216
322,177.6923065185547,65.67765808105469,162.38095092773438,25.787546157836914,,427001.82334063255
323,431.94140625,170.03663635253906,161.97802734375,25.787546157836914,,427001.8272480529
324,176.08058166503906,112.4175796508789,155.93406677246094,25.787546157836914,,427001.8311554733
325,0.0,17.326007843017578,114.83516693115234,25.787546157836914,,427001.8350628937
326,122.8937759399414,29.41391944885254,114.02930450439453,25.787546157836914,,427001.8389703141
327,382.3809509277344,150.6959686279297,168.02197265625,25.787546157836914,,427001.84287773445
328,206.7032928466797,155.12820434570312,185.34799194335938,25.787546157836914,,427001.84678515483
329,0.0,33.846153259277344,134.57875061035156,25.787546157836914,,427001.8506925752
330,64.46886444091797,6.849816799163818,102.34432220458984,25.787546157836914,,427001.8545999956
331,265.1282043457031,125.31135559082031,177.2893829345703,25.787546157836914,,427001.858507416
332,156.73992919921875,203.88278198242188,237.3260040283203,25.787546157836914,,427001.86241483636
333,7.252747058868408,62.4542121887207,137.39926147460938,25.787546157836914,,427001.8663222568
334,14.102563858032227,2.0146520137786865,83.4065933227539,25.787546157836914,,427001.8702296772
335,182.12454223632812,93.47985076904297,164.39559936523438,25.787546157836914,,427001.87413709756
336,301.79486083984375,188.57142639160156,201.86813354492188,25.787546157836914,,427001.87804451794
337,70.5128173828125,91.46520233154297,141.025634765625,25.787546157836914,,427001.8819519383
338,8.058608055114746,3.2234432697296143,79.78022003173828,25.787546157836914,,427001.8858593587
339,35.05494689941406,79.37728881835938,170.8424835205078,25.787546157836914,,427001.8897667791
340,176.4835205078125,209.5238037109375,253.44322204589844,25.787546157836914,,427001.89367419947
341,150.2930450439453,122.8937759399414,153.91941833496094,25.787546157836914,,427001.89758161985
342,22.16117286682129,4.432234287261963,68.9011001586914,25.787546157836914,,427001.90148904023
343,0.0,62.0512809753418,185.34799194335938,25.787546157836914,,427001.9053964606
344,180.10989379882812,201.46519470214844,270.76922607421875,25.787546157836914,,427001.909303881
345,280.8424987792969,142.63735961914062,147.06959533691406,25.787546157836914,,427001.9132113014
346,28.205127716064453,22.96703338623047,80.989013671875,25.787546157836914,,427001.9171187218
347,13.296703338623047,13.699633598327637,121.28205108642578,25.787546157836914,,427001.9210261422
348,335.6410217285156,99.92674255371094,161.1721649169922,25.787546157836914,,427001.9249335626
349,412.19781494140625,155.12820434570312,139.41392517089844,25.787546157836914,,427001.92884098296
350,85.01831817626953,51.17216110229492,100.32967376708984,25.787546157836914,,427001.93274840334
351,0.0,5.238095283508301,126.11721801757812,25.787546157836914,,427001.9366558237
352,120.47618865966797,93.47985076904297,201.46519470214844,25.787546157836914,,427001.9405632441
353,286.0805969238281,191.39193725585938,201.46519470214844,25.787546157836914,,427001.9444706645
354,147.06959533691406,87.03296661376953,128.53480529785156,25.787546157836914,,427001.94837808487
355,0.0,8.058608055114746,192.60073852539062,25.787546157836914,,427001.95228550525
356,143.04029846191406,57.619049072265625,219.59707641601562,25.787546157836914,,427001.95619292563
357,470.6227111816406,163.1868133544922,149.89010620117188,25.787546157836914,,427001.960100346
358,276.4102478027344,114.83516693115234,137.8022003173828,25.787546157836914,,427001.96400776645
359,0.0,20.146520614624023,105.16483306884766,25.787546157836914,,427001.96791518683
360,75.34798431396484,20.146520614624023,103.95604705810547,25.787546157836914,,427001.9718226072
361,403.73626708984375,124.1025619506836,151.5018310546875,25.787546157836914,,427001.9757300276
362,306.6300354003906,152.3076934814453,156.73992919921875,25.787546157836914,,427001.979637448
363,9.267398834228516,38.68132019042969,107.5824203491211,25.787546157836914,,427001.98354486836
364,0.0,11.684981346130371,137.39926147460938,25.787546157836914,,427001.98745228874
365,222.8205108642578,102.34432220458984,182.12454223632812,25.787546157836914,,427001.9913597091
366,286.0805969238281,199.45054626464844,213.15017700195312,25.787546157836914,,427001.9952671295
367,19.340660095214844,103.55311584472656,198.64468383789062,25.787546157836914,,427001.9991745499
368,0.0,5.641025543212891,97.1062240600586,25.787546157836914,,427002.00308197027
369,211.13552856445312,66.0805892944336,124.9084243774414,25.787546157836914,,427002.00698939065
370,335.23809814453125,184.94505310058594,195.42124938964844,25.787546157836914,,427002.0108968111
371,98.31501770019531,109.19413757324219,149.4871826171875,25.787546157836914,,427002.01480423147
372,2.4175825119018555,6.849816799163818,73.73626708984375,25.787546157836914,,427002.01871165185
373,102.34432220458984,45.128204345703125,126.52014923095703,25.787546157836914,,427002.02261907223
374,358.6080627441406,164.7985382080078,186.15383911132812,25.787546157836914,,427002.0265264926
375,249.41392517089844,126.11721801757812,140.21978759765625,25.787546157836914,,427002.030433913
376,17.72893714904785,14.505494117736816,115.23809814453125,25.787546157836914,,427002.0343413334
377,5.238095283508301,26.190475463867188,166.8131866455078,25.787546157836914,,427002.03824875376
378,99.52381134033203,171.24542236328125,252.23443603515625,25.787546157836914,,427002.04215617414
379,216.77655029296875,172.85714721679688,192.1977996826172,25.787546157836914,,427002.0460635945
380,73.73626708984375,29.41391944885254,72.93040466308594,25.787546157836914,,427002.0499710149
381,0.0,12.087912559509277,113.22344207763672,25.787546157836914,,427002.0538784353
382,182.93040466308594,107.5824203491211,195.018310546875,25.787546157836914,,427002.0577858557
383,393.26007080078125,170.03663635253906,163.99267578125,25.787546157836914,,427002.0616932761
384,145.45787048339844,62.85714340209961,85.4212417602539,25.787546157836914,,427002.0656006965
385,0.0,8.864468574523926,123.69963073730469,25.787546157836914,,427002.06950811687
386,177.2893829345703,70.9157485961914,196.22711181640625,25.787546157836914,,427002.07341553725
387,427.9120788574219,174.87179565429688,167.2161102294922,25.787546157836914,,427002.07732295763
388,177.6923065185547,108.79120635986328,143.04029846191406,25.787546157836914,,427002.081230378
389,0.0,13.296703338623047,174.06593322753906,25.787546157836914,,427002.0851377984
390,112.82051086425781,39.89011001586914,212.34432983398438,25.787546157836914,,427002.0890452188
391,440.80584716796875,153.91941833496094,169.63369750976562,25.787546157836914,,427002.09295263916
392,325.5677795410156,125.71428680419922,122.8937759399414,25.787546157836914,,427002.09686005954
393,4.835165023803711,21.355310440063477,98.31501770019531,25.787546157836914,,427002.1007674799
394,38.68132019042969,14.908425331115723,115.64102935791016,25.787546157836914,,427002.10467490036
395,362.23443603515625,108.38827514648438,148.6813201904297,25.787546157836914,,427002.10858232074
396,374.3223571777344,155.93406677246094,149.08424377441406,25.787546157836914,,427002.1124897411
397,41.098899841308594,53.589744567871094,131.35531616210938,25.787546157836914,,427002.1163971615
398,0.0,9.670330047607422,113.62637329101562,25.787546157836914,,427002.1203045819
399,244.981689453125,78.97435760498047,144.65200805664062,25.787546157836914,,427002.12421200227
400,301.3919372558594,188.57142639160156,188.57142639160156,25.787546157836914,,427002.12811942265
401,45.53113555908203,114.43223571777344,231.2820587158203,25.787546157836914,,427002.132026843
402,0.0,16.117216110229492,188.974365234375,25.787546157836914,,427002.1359342634
403,184.54212951660156,49.157508850097656,125.31135559082031,25.787546157836914,,427002.1398416838
404,410.1831359863281,169.23077392578125,174.4688720703125,25.787546157836914,,427002.1437491042
405,162.38095092773438,120.87911987304688,149.4871826171875,25.787546157836914,,427002.14765652455
406,0.0,14.505494117736816,80.989013671875,25.787546157836914,,427002.151563945
407,105.56776428222656,24.981685638427734,107.5824203491211,25.787546157836914,,427002.1554713654
408,352.967041015625,151.5018310546875,180.5128173828125,25.787546157836914,,427002.15937878576
409,248.60806274414062,152.7106170654297,163.58973693847656,25.787546157836914,,427002.16328620614
410,11.684981346130371,26.996337890625,87.43589782714844,25.787546157836914,,427002.1671936265
411,38.27838897705078,6.4468865394592285,95.4945068359375,25.787546157836914,,427002.1711010469
412,97.5091552734375,142.23443603515625,226.04396057128906,25.787546157836914,,427002.1750084673
413,49.157508850097656,231.2820587158203,283.26007080078125,25.787546157836914,,427002.17891588766
414,31.428571701049805,68.9011001586914,134.57875061035156,25.787546157836914,,427002.18282330805
415,0.4029304087162018,2.8205127716064453,77.36264038085938,25.787546157836914,,427002.1867307284
416,153.5164794921875,87.43589782714844,157.54579162597656,25.787546157836914,,427002.1906381488
417,397.28936767578125,173.6630096435547,170.03663635253906,25.787546157836914,,427002.1945455692
418,181.72161865234375,83.003662109375,99.52381134033203,25.787546157836914,,427002.1984529896
419,0.0,8.864468574523926,82.19779968261719,25.787546157836914,,427002.20236041
420,120.47618865966797,58.42490768432617,149.08424377441406,25.787546157836914,,427002.2062678304
421,414.6153869628906,170.43955993652344,176.88644409179688,25.787546157836914,,427002.2101752508
422,248.60806274414062,117.65567779541016,122.4908447265625,25.787546157836914,,427002.21408267115
423,4.432234287261963,12.893773078918457,89.04762268066406,25.787546157836914,,427002.21799009154
424,10.073260307312012,35.05494689941406,166.41026306152344,25.787546157836914,,427002.2218975119
425,255.45787048339844,157.94871520996094,213.55311584472656,25.787546157836914,,427002.2258049323
426,308.6446838378906,151.09890747070312,142.63735961914062,25.787546157836914,,427002.2297123527
427,36.66666793823242,24.981685638427734,115.64102935791016,25.787546157836914,,427002.23361977306
428,0.0,25.787546157836914,226.44688415527344,25.787546157836914,,427002.23752719344
429,243.77288818359375,132.96702575683594,241.75823974609375,25.787546157836914,,427002.2414346138
430,419.8534851074219,163.99267578125,143.84616088867188,25.787546157836914,,427002.24534203426
431,117.65567779541016,55.60439682006836,119.26740264892578,25.787546157836914,,427002.24924945465
432,0.0,9.670330047607422,118.86447143554688,25.787546157836914,,427002.253156875
433,203.07691955566406,68.4981689453125,139.010986328125,25.787546157836914,,427002.2570642954
434,449.26739501953125,163.58973693847656,149.4871826171875,25.787546157836914,,427002.2609717158
435,193.8095245361328,95.8974380493164,141.8314971923828,25.787546157836914,,427002.2648791362
436,0.0,11.282051086425781,149.89010620117188,25.787546157836914,,427002.26878655655
437,75.34798431396484,53.99267578125,177.2893829345703,25.787546157836914,,427002.27269397693
438,381.5751037597656,163.99267578125,169.23077392578125,25.787546157836914,,427002.2766013973
439,268.75457763671875,147.87545776367188,186.95970153808594,25.787546157836914,,427002.2805088177
440,0.0,45.128204345703125,176.88644409179688,25.787546157836914,,427002.2844162381
441,75.75091552734375,9.670330047607422,105.97069549560547,25.787546157836914,,427002.28832365846
442,313.0769348144531,132.1611785888672,174.06593322753906,25.787546157836914,,427002.2922310789
443,217.58241271972656,183.3333282470703,209.5238037109375,25.787546157836914,,427002.2961384993
444,6.043956279754639,49.96337127685547,121.68498229980469,25.787546157836914,,427002.30004591966
445,15.714285850524902,4.835165023803711,86.22710418701172,25.787546157836914,,427002.30395334004
446,250.62271118164062,92.67399597167969,153.11355590820312,25.787546157836914,,427002.3078607604
447,327.9853515625,180.91575622558594,182.5274658203125,25.787546157836914,,427002.3117681808
448,65.67765808105469,80.989013671875,149.08424377441406,25.787546157836914,,427002.3156756012
449,0.0,4.835165023803711,105.56776428222656,25.787546157836914,,427002.31958302157
450,143.04029846191406,68.4981689453125,141.025634765625,25.787546157836914,,427002.32349044195
451,139.8168487548828,220.0,263.5164794921875,25.787546157836914,,427002.32739786233
452,26.593406677246094,135.7875518798828,191.39193725585938,25.787546157836914,,427002.3313052827
453,24.175825119018555,4.835165023803711,68.0952377319336,25.787546157836914,,427002.3352127031
454,37.875457763671875,45.93406677246094,135.7875518798828,25.787546157836914,,427002.3391201235
455,345.71429443359375,161.97802734375,190.1831512451172,25.787546157836914,,427002.3430275439
456,308.6446838378906,130.95237731933594,124.9084243774414,25.787546157836914,,427002.3469349643
457,12.893773078918457,17.326007843017578,91.06227111816406,25.787546157836914,,427002.3508423847
458,0.0,29.41391944885254,178.09524536132812,25.787546157836914,,427002.35474980506
459,253.04029846191406,142.63735961914062,217.1794891357422,25.787546157836914,,427002.35865722544
460,276.8132019042969,178.09524536132812,186.15383911132812,25.787546157836914,,427002.3625646458
461,20.952381134033203,56.00732421875,124.1025619506836,25.787546157836914,,427002.3664720662
462,0.0,13.296703338623047,151.90475463867188,25.787546157836914,,427002.3703794866
463,193.40660095214844,112.82051086425781,232.89376831054688,25.787546157836914,,427002.37428690697
464,441.6117248535156,170.43955993652344,154.72528076171875,25.787546157836914,,427002.37819432735
465,175.27471923828125,69.70696258544922,91.46520233154297,25.787546157836914,,427002.38210174773
466,0.0,10.879120826721191,99.92674255371094,25.787546157836914,,427002.3860091681
467,166.00732421875,56.410255432128906,142.63735961914062,25.787546157836914,,427002.38991658855
468,463.77288818359375,160.76922607421875,150.6959686279297,25.787546157836914,,427002.39382400893
469,246.59339904785156,106.77655792236328,121.28205108642578,25.787546157836914,,427002.3977314293
470,0.0,14.102563858032227,103.95604705810547,25.787546157836914,,427002.4016388497
471,85.01831817626953,29.010988235473633,125.31135559082031,25.787546157836914,,427002.4055462701
472,289.70697021484375,156.73992919921875,193.003662109375,25.787546157836914,,427002.40945369046
473,195.42124938964844,172.85714721679688,194.2124481201172,25.787546157836914,,427002.41336111084
474,5.238095283508301,45.53113555908203,209.5238037109375,25.787546157836914,,427002.4172685312
475,29.41391944885254,10.879120826721191,200.25640869140625,25.787546157836914,,427002.4211759516
476,359.010986328125,101.94139099121094,146.6666717529297,25.787546157836914,,427002.425083372
477,369.8901062011719,168.02197265625,163.99267578125,25.787546157836914,,427002.42899079237
478,26.593406677246094,64.87179565429688,125.71428680419922,25.787546157836914,,427002.43289821275
479,0.0,7.252747058868408,86.63003540039062,25.787546157836914,,427002.4368056332
480,238.53480529785156,72.93040466308594,130.54945373535156,25.787546157836914,,427002.44071305357
481,384.3955993652344,176.08058166503906,174.4688720703125,25.787546157836914,,427002.44462047395
482,99.92674255371094,97.9120864868164,134.1758270263672,25.787546157836914,,427002.44852789433
483,0.0,6.849816799163818,86.63003540039062,25.787546157836914,,427002.4524353147
484,86.63003540039062,61.24542236328125,156.73992919921875,25.787546157836914,,427002.4563427351
485,157.54579162597656,216.37362670898438,261.5018310546875,25.787546157836914,,427002.4602501555
486,48.35165023803711,162.7838897705078,219.1941375732422,25.787546157836914,,427002.46415757586
487,4.029304027557373,16.117216110229492,109.19413757324219,25.787546157836914,,427002.46806499624
488,88.24176025390625,17.326007843017578,130.54945373535156,25.787546157836914,,427002.4719724166
489,286.8864440917969,147.06959533691406,198.64468383789062,25.787546157836914,,427002.475879837
490,248.60806274414062,161.1721649169922,173.6630096435547,25.787546157836914,,427002.4797872574
491,50.769229888916016,27.80219841003418,77.76556396484375,25.787546157836914,,427002.4836946778
492,0.0,10.879120826721191,97.5091552734375,25.787546157836914,,427002.4876020982
493,224.029296875,107.17948913574219,175.27471923828125,25.787546157836914,,427002.4915095186
494,390.03662109375,169.63369750976562,159.96336364746094,25.787546157836914,,427002.49541693897
495,114.02930450439453,60.03662872314453,93.47985076904297,25.787546157836914,,427002.49932435935
496,0.0,4.029304027557373,127.72893524169922,25.787546157836914,,427002.50323177973
497,65.67765808105469,104.76190185546875,242.96702575683594,25.787546157836914,,427002.5071392001
498,308.6446838378906,197.8388214111328,214.76190185546875,25.787546157836914,,427002.5110466205
499,214.76190185546875,87.83882904052734,99.52381134033203,25.787546157836914,,427002.5149540409
500,0.0,12.490842819213867,101.13552856445312,25.787546157836914,,427002.51886146126
501,136.59339904785156,41.5018310546875,151.09890747070312,25.787546157836914,,427002.52276888164
502,397.28936767578125,163.58973693847656,179.7069549560547,25.787546157836914,,427002.526676302
503,205.4945068359375,136.996337890625,147.4725341796875,25.787546157836914,,427002.53058372246
504,0.0,20.146520614624023,122.4908447265625,25.787546157836914,,427002.53449114284
505,59.63370132446289,16.117216110229492,168.42491149902344,25.787546157836914,,427002.5383985632
506,379.5604248046875,116.04395294189453,163.58973693847656,25.787546157836914,,427002.5423059836
507,361.8315124511719,151.5018310546875,130.54945373535156,25.787546157836914,,427002.546213404
508,30.622711181640625,42.30769348144531,159.56044006347656,25.787546157836914,,427002.55012082437
509,0.8058608174324036,8.864468574523926,209.92674255371094,25.787546157836914,,427002.55402824475
510,294.5421142578125,95.0915756225586,169.23077392578125,25.787546157836914,,427002.5579356651
511,447.25274658203125,165.60440063476562,141.8314971923828,25.787546157836914,,427002.5618430855
512,127.32600402832031,68.9011001586914,119.67032623291016,25.787546157836914,,427002.5657505059
513,0.0,10.073260307312012,101.94139099121094,25.787546157836914,,427002.5696579263
514,193.003662109375,61.64834976196289,130.54945373535156,25.787546157836914,,427002.57356534665
515,444.029296875,167.2161102294922,164.7985382080078,25.787546157836914,,427002.5774727671
516,176.88644409179688,111.20879364013672,140.62271118164062,25.787546157836914,,427002.5813801875
517,0.0,13.296703338623047,104.76190185546875,25.787546157836914,,427002.58528760786
518,75.75091552734375,43.516483306884766,153.5164794921875,25.787546157836914,,427002.58919502824
519,330.0,168.8278350830078,191.7948760986328,25.787546157836914,,427002.5931024486
520,199.45054626464844,169.23077392578125,208.7179412841797,25.787546157836914,,427002.597009869
521,0.0,41.904762268066406,145.86080932617188,25.787546157836914,,427002.6009172894
522,64.06593322753906,4.835165023803711,93.88278198242188,25.787546157836914,,427002.60482470976
523,277.6190490722656,123.29669952392578,176.4835205078125,25.787546157836914,,427002.60873213015
524,182.12454223632812,193.8095245361328,219.59707641601562,25.787546157836914,,427002.6126395505
525,9.267398834228516,57.21611785888672,123.69963073730469,25.787546157836914,,427002.6165469709
526,17.326007843017578,2.0146520137786865,83.80952453613281,25.787546157836914,,427002.6204543913
527,167.61904907226562,96.70330047607422,170.8424835205078,25.787546157836914,,427002.62436181173
528,345.31134033203125,182.5274658203125,188.1685028076172,25.787546157836914,,427002.6282692321
529,148.6813201904297,78.16849517822266,108.38827514648438,25.787546157836914,,427002.6321766525
530,0.0,7.252747058868408,84.21245574951172,25.787546157836914,,427002.6360840729
531,92.67399597167969,69.30403137207031,156.3369903564453,25.787546157836914,,427002.63999149326
532,240.14651489257812,203.07691955566406,230.07325744628906,25.787546157836914,,427002.64389891364
533,103.55311584472656,142.23443603515625,201.06227111816406,25.787546157836914,,427002.647806334
534,17.72893714904785,8.058608055114746,102.74725341796875,25.787546157836914,,427002.6517137544
535,4.835165023803711,59.63370132446289,174.06593322753906,25.787546157836914,,427002.6556211748
536,134.1758270263672,214.76190185546875,290.1098937988281,25.787546157836914,,427002.65952859516
537,232.89376831054688,156.3369903564453,170.8424835205078,25.787546157836914,,427002.66343601554
538,31.0256404876709,22.96703338623047,81.79486846923828,25.787546157836914,,427002.6673434359
539,16.117216110229492,14.102563858032227,122.8937759399414,25.787546157836914,,427002.67125085637
540,340.4761962890625,106.37362670898438,163.99267578125,25.787546157836914,,427002.67515827675
541,411.3919372558594,160.36630249023438,141.42857360839844,25.787546157836914,,427002.6790656971
542,87.83882904052734,52.78388214111328,103.95604705810547,25.787546157836914,,427002.6829731175
543,0.0,5.641025543212891,120.07325744628906,25.787546157836914,,427002.6868805379
544,122.0879135131836,91.86813354492188,190.58607482910156,25.787546157836914,,427002.6907879583
545,346.9230651855469,184.13919067382812,181.72161865234375,25.787546157836914,,427002.69469537865
546,180.10989379882812,84.61538696289062,121.68498229980469,25.787546157836914,,427002.69860279904
547,0.0,8.864468574523926,170.43955993652344,25.787546157836914,,427002.7025102194
548,107.9853515625,58.42490768432617,199.04762268066406,25.787546157836914,,427002.7064176398
549,420.25640869140625,164.7985382080078,157.14285278320312,25.787546157836914,,427002.7103250602
550,271.1721496582031,122.4908447265625,151.5018310546875,25.787546157836914,,427002.71423248056
551,0.0,26.190475463867188,143.84616088867188,25.787546157836914,,427002.718139901
552,72.52747344970703,20.549449920654297,118.86447143554688,25.787546157836914,,427002.7220473214
553,405.75091552734375,129.3406524658203,153.5164794921875,25.787546157836914,,427002.72595474176
554,313.4798583984375,155.93406677246094,160.36630249023438,25.787546157836914,,427002.72986216214
555,9.670330047607422,39.487178802490234,113.22344207763672,25.787546157836914,,427002.7337695825
556,0.0,12.087912559509277,142.23443603515625,25.787546157836914,,427002.7376770029
557,225.23809814453125,105.56776428222656,184.94505310058594,25.787546157836914,,427002.7415844233
558,289.70697021484375,201.06227111816406,211.94139099121094,25.787546157836914,,427002.74549184367
559,20.952381134033203,104.35897064208984,206.3003692626953,25.787546157836914,,427002.74939926405
560,0.0,6.4468865394592285,106.77655792236328,25.787546157836914,,427002.75330668443
561,213.55311584472656,66.48351287841797,127.32600402832031,25.787546157836914,,427002.7572141048
562,396.4835205078125,175.27471923828125,176.88644409179688,25.787546157836914,,427002.7611215252
563,129.74359130859375,104.35897064208984,145.05494689941406,25.787546157836914,,427002.7650289456
564,0.0,9.267398834228516,85.4212417602539,25.787546157836914,,427002.768936366
565,117.25274658203125,42.30769348144531,120.07325744628906,25.787546157836914,,427002.7728437864
566,311.062255859375,178.90109252929688,203.88278198242188,25.787546157836914,,427002.7767512068
567,204.6886444091797,140.62271118164062,159.56044006347656,25.787546157836914,,427002.78065862716
568,21.355310440063477,14.908425331115723,109.19413757324219,25.787546157836914,,427002.78456604754
569,22.96703338623047,21.758241653442383,155.12820434570312,25.787546157836914,,427002.7884734679
570,141.42857360839844,162.7838897705078,242.56410217285156,25.787546157836914,,427002.7923808883
571,236.5201416015625,173.6630096435547,193.8095245361328,25.787546157836914,,427002.7962883087
572,73.73626708984375,31.428571701049805,76.55677795410156,25.787546157836914,,427002.80019572907
573,0.0,11.684981346130371,112.0146484375,25.787546157836914,,427002.80410314945
574,236.92308044433594,99.12088012695312,176.08058166503906,25.787546157836914,,427002.80801056983
575,431.5384521484375,165.2014617919922,149.4871826171875,25.787546157836914,,427002.8119179902
576,138.2051239013672,64.46886444091797,91.06227111816406,25.787546157836914,,427002.81582541065
577,0.0,8.461538314819336,107.9853515625,25.787546157836914,,427002.81973283103
578,136.1904754638672,71.31867980957031,179.3040313720703,25.787546157836914,,427002.8236402514
579,383.1867980957031,177.2893829345703,176.08058166503906,25.787546157836914,,427002.8275476718
580,176.88644409179688,111.61172485351562,145.86080932617188,25.787546157836914,,427002.8314550922
581,0.0,10.476190567016602,174.87179565429688,25.787546157836914,,427002.83536251256
582,66.88644409179688,58.82783889770508,243.36996459960938,25.787546157836914,,427002.83926993294
583,396.0805969238281,174.87179565429688,199.85348510742188,25.787546157836914,,427002.8431773533
584,344.1025695800781,124.5054931640625,120.87911987304688,25.787546157836914,,427002.8470847737
585,7.655677795410156,22.16117286682129,98.31501770019531,25.787546157836914,,427002.8509921941
586,37.06959533691406,14.505494117736816,114.43223571777344,25.787546157836914,,427002.85489961447
587,367.4725341796875,109.19413757324219,148.27838134765625,25.787546157836914,,427002.85880703485
588,389.6336975097656,155.5311279296875,146.6666717529297,25.787546157836914,,427002.8627144553
589,49.96337127685547,50.36629867553711,116.04395294189453,25.787546157836914,,427002.86662187567
590,0.0,9.267398834228516,104.76190185546875,25.787546157836914,,427002.87052929605
591,244.981689453125,80.989013671875,144.65200805664062,25.787546157836914,,427002.87443671643
592,303.80950927734375,192.60073852539062,190.989013671875,25.787546157836914,,427002.8783441368
593,47.9487190246582,119.67032623291016,235.7142791748047,25.787546157836914,,427002.8822515572
594,0.0,17.72893714904785,192.60073852539062,25.787546157836914,,427002.8861589776
595,184.94505310058594,48.35165023803711,126.92308044433594,25.787546157836914,,427002.89006639796
596,413.80950927734375,169.23077392578125,174.06593322753906,25.787546157836914,,427002.89397381834
597,163.58973693847656,121.28205108642578,153.91941833496094,25.787546157836914,,427002.8978812387
598,0.0,14.505494117736816,84.21245574951172,25.787546157836914,,427002.9017886591
599,106.37362670898438,24.981685638427734,107.9853515625,25.787546157836914,,427002.9056960795
600,354.1758117675781,152.3076934814453,182.12454223632812,25.787546157836914,,427002.9096034999
601,248.2051239013672,153.5164794921875,165.60440063476562,25.787546157836914,,427002.9135109203
602,11.282051086425781,27.80219841003418,91.86813354492188,25.787546157836914,,427002.9174183407
603,41.5018310546875,5.238095283508301,95.8974380493164,25.787546157836914,,427002.92132576107
604,103.55311584472656,143.44322204589844,226.44688415527344,25.787546157836914,,427002.92523318145
605,88.24176025390625,219.59707641601562,258.6813049316406,25.787546157836914,,427002.92914060183
606,56.00732421875,57.619049072265625,112.0146484375,25.787546157836914,,427002.9330480222
607,0.0,4.029304027557373,85.01831817626953,25.787546157836914,,427002.9369554426
608,136.1904754638672,89.85347747802734,170.43955993652344,25.787546157836914,,427002.940862863
609,374.3223571777344,177.2893829345703,182.12454223632812,25.787546157836914,,427002.94477028336
610,177.6923065185547,84.21245574951172,106.77655792236328,25.787546157836914,,427002.94867770374
611,0.0,6.043956279754639,81.79486846923828,25.787546157836914,,427002.9525851241
612,64.87179565429688,72.12454223632812,177.2893829345703,25.787546157836914,,427002.95649254456
613,317.9120788574219,195.42124938964844,220.8058624267578,25.787546157836914,,427002.96039996494
614,245.7875518798828,122.8937759399414,128.93772888183594,25.787546157836914,,427002.9643073853
615,8.058608055114746,12.087912559509277,90.65933990478516,25.787546157836914,,427002.9682148057
616,8.461538314819336,38.27838897705078,170.8424835205078,25.787546157836914,,427002.9721222261
617,263.5164794921875,163.99267578125,217.58241271972656,25.787546157836914,,427002.97602964647
618,319.5238037109375,152.7106170654297,142.23443603515625,25.787546157836914,,427002.97993706685
619,33.44322204589844,28.60805892944336,105.16483306884766,25.787546157836914,,427002.98384448723
620,0.0,14.505494117736816,185.75091552734375,25.787546157836914,,427002.9877519076
621,292.9303894042969,112.0146484375,199.85348510742188,25.787546157836914,,427002.991659328
622,422.6739807128906,165.2014617919922,133.77288818359375,25.787546157836914,,427002.9955667484
623,107.9853515625,58.021976470947266,136.1904754638672,25.787546157836914,,427002.99947416876
624,0.0,9.267398834228516,156.3369903564453,25.787546157836914,,427003.0033815892
625,206.3003692626953,69.30403137207031,144.65200805664062,25.787546157836914,,427003.0072890096
626,457.3260192871094,165.60440063476562,149.4871826171875,25.787546157836914,,427003.01119642996
627,198.24176025390625,96.30036926269531,134.981689453125,25.787546157836914,,427003.01510385034
628,0.0,10.073260307312012,141.025634765625,25.787546157836914,,427003.0190112707
629,76.95970916748047,55.20146560668945,180.10989379882812,25.787546157836914,,427003.0229186911
630,385.6044006347656,166.00732421875,167.61904907226562,25.787546157836914,,427003.0268261115
631,272.78387451171875,150.2930450439453,184.54212951660156,25.787546157836914,,427003.03073353186
632,0.0,47.14285659790039,180.5128173828125,25.787546157836914,,427003.03464095225
633,64.46886444091797,12.087912559509277,116.44688415527344,25.787546157836914,,427003.0385483726
634,385.20147705078125,120.07325744628906,153.91941833496094,25.787546157836914,,427003.042455793
635,320.73260498046875,157.94871520996094,161.97802734375,25.787546157836914,,427003.0463632134
636,11.684981346130371,43.11355209350586,104.76190185546875,25.787546157836914,,427003.05027063383
637,16.5201473236084,4.432234287261963,89.45054626464844,25.787546157836914,,427003.0541780542
638,207.5091552734375,101.13552856445312,171.64834594726562,25.787546157836914,,427003.0580854746
639,225.64102172851562,202.6739959716797,221.61172485351562,25.787546157836914,,427003.061992895
640,35.4578742980957,88.24176025390625,170.43955993652344,25.787546157836914,,427003.06590031536
641,9.267398834228516,3.2234432697296143,107.17948913574219,25.787546157836914,,427003.06980773574
642,121.68498229980469,72.52747344970703,149.4871826171875,25.787546157836914,,427003.0737151561
643,315.8974304199219,187.36264038085938,205.4945068359375,25.787546157836914,,427003.0776225765
644,184.13919067382812,105.97069549560547,130.14651489257812,25.787546157836914,,427003.0815299969
645,15.714285850524902,6.043956279754639,70.10989379882812,25.787546157836914,,427003.08543741726
646,11.684981346130371,51.978023529052734,150.6959686279297,25.787546157836914,,427003.08934483764
647,136.59339904785156,200.25640869140625,260.69598388671875,25.787546157836914,,427003.093252258
648,198.64468383789062,149.89010620117188,173.26007080078125,25.787546157836914,,427003.09715967847
649,22.96703338623047,17.326007843017578,77.76556396484375,25.787546157836914,,427003.10106709885
650,4.835165023803711,21.758241653442383,124.1025619506836,25.787546157836914,,427003.1049745192
651,289.70697021484375,127.32600402832031,181.72161865234375,25.787546157836914,,427003.1088819396
652,271.97802734375,177.6923065185547,182.93040466308594,25.787546157836914,,427003.11278936
653,14.908425331115723,52.380950927734375,131.35531616210938,25.787546157836914,,427003.1166967804
654,2.0146520137786865,10.879120826721191,172.85714721679688,25.787546157836914,,427003.12060420075
655,118.05860900878906,130.54945373535156,267.5457763671875,25.787546157836914,,427003.12451162114
656,356.5934143066406,187.76556396484375,187.76556396484375,25.787546157836914,,427003.1284190415
657,177.2893829345703,70.5128173828125,95.0915756225586,25.787546157836914,,427003.1323264619
658,0.0,11.282051086425781,101.94139099121094,25.787546157836914,,427003.1362338823
659,167.61904907226562,55.20146560668945,141.8314971923828,25.787546157836914,,427003.14014130266
660,468.20513916015625,159.56044006347656,149.89010620117188,25.787546157836914,,427003.1440487231
661,249.41392517089844,106.77655792236328,121.68498229980469,25.787546157836914,,427003.1479561435
662,0.0,14.102563858032227,105.97069549560547,25.787546157836914,,427003.15186356386
663,89.85347747802734,29.010988235473633,130.54945373535156,25.787546157836914,,427003.15577098425
664,294.945068359375,161.97802734375,199.04762268066406,25.787546157836914,,427003.1596784046
665,205.89743041992188,171.24542236328125,191.7948760986328,25.787546157836914,,427003.163585825
666,5.238095283508301,40.69597244262695,178.09524536132812,25.787546157836914,,427003.1674932454
667,39.487178802490234,9.670330047607422,169.63369750976562,25.787546157836914,,427003.1714006658
668,300.5860900878906,107.9853515625,165.2014617919922,25.787546157836914,,427003.17530808615
669,284.8717956542969,190.989013671875,201.86813354492188,25.787546157836914,,427003.17921550653
670,29.816850662231445,83.003662109375,170.03663635253906,25.787546157836914,,427003.1831229269
671,0.0,7.655677795410156,107.5824203491211,25.787546157836914,,427003.1870303473
672,249.41392517089844,73.33333587646484,128.93772888183594,25.787546157836914,,427003.19093776774
673,398.4981689453125,180.91575622558594,178.90109252929688,25.787546157836914,,427003.1948451881
674,107.5824203491211,99.92674255371094,133.77288818359375,25.787546157836914,,427003.1987526085
675,0.0,7.252747058868408,85.01831817626953,25.787546157836914,,427003.2026600289
676,108.79120635986328,59.230770111083984,150.2930450439453,25.787546157836914,,427003.20656744926
677,189.78021240234375,216.77655029296875,250.62271118164062,25.787546157836914,,427003.21047486964
678,49.157508850097656,169.23077392578125,226.44688415527344,25.787546157836914,,427003.21438229
679,5.238095283508301,16.117216110229492,93.88278198242188,25.787546157836914,,427003.2182897104
680,80.989013671875,20.146520614624023,101.53845977783203,25.787546157836914,,427003.2221971308
681,356.19049072265625,141.42857360839844,177.2893829345703,25.787546157836914,,427003.22610455117
682,319.1208801269531,151.5018310546875,149.4871826171875,25.787546157836914,,427003.23001197155
683,41.098899841308594,29.41391944885254,100.73259735107422,25.787546157836914,,427003.23391939193
684,3.626373529434204,8.864468574523926,130.14651489257812,25.787546157836914,,427003.2378268123
685,182.93040466308594,117.65567779541016,200.25640869140625,25.787546157836914,,427003.24173423275
686,335.6410217285156,178.90109252929688,182.5274658203125,25.787546157836914,,427003.24564165313
687,117.25274658203125,57.21611785888672,94.28571319580078,25.787546157836914,,427003.2495490735
688,0.0,4.432234287261963,124.9084243774414,25.787546157836914,,427003.2534564939
689,62.0512809753418,104.76190185546875,242.1611785888672,25.787546157836914,,427003.2573639143
690,308.6446838378906,198.24176025390625,218.7912139892578,25.787546157836914,,427003.26127133466
691,217.9853515625,88.24176025390625,99.52381134033203,25.787546157836914,,427003.26517875504
692,0.0,11.282051086425781,98.31501770019531,25.787546157836914,,427003.2690861754
693,123.29669952392578,44.72527313232422,155.93406677246094,25.787546157836914,,427003.2729935958
694,450.8791198730469,155.5311279296875,163.1868133544922,25.787546157836914,,427003.2769010162
695,298.5714416503906,120.47618865966797,119.26740264892578,25.787546157836914,,427003.28080843657
696,0.0,19.743589401245117,103.55311584472656,25.787546157836914,,427003.28471585695
697,56.410255432128906,16.5201473236084,135.38461303710938,25.787546157836914,,427003.2886232774
698,356.19049072265625,122.8937759399414,164.7985382080078,25.787546157836914,,427003.29253069777
699,288.9010925292969,168.02197265625,161.1721649169922,25.787546157836914,,427003.29643811815
700,15.311355590820312,45.128204345703125,166.41026306152344,25.787546157836914,,427003.30034553853
701,2.4175825119018555,11.282051086425781,221.61172485351562,25.787546157836914,,427003.3042529589
702,277.6190490722656,107.5824203491211,190.58607482910156,25.787546157836914,,427003.3081603793
703,448.05859375,168.02197265625,141.8314971923828,25.787546157836914,,427003.3120677997
704,131.75823974609375,66.0805892944336,115.23809814453125,25.787546157836914,,427003.31597522006
705,0.0,10.073260307312012,99.92674255371094,25.787546157836914,,427003.31988264044
706,194.2124481201172,62.85714340209961,128.93772888183594,25.787546157836914,,427003.3237900608
707,449.26739501953125,169.23077392578125,159.56044006347656,25.787546157836914,,427003.3276974812
708,182.93040466308594,110.4029312133789,140.62271118164062,25.787546157836914,,427003.3316049016
709,0.0,14.908425331115723,97.5091552734375,25.787546157836914,,427003.335512322
710,123.29669952392578,32.234432220458984,116.84981536865234,25.787546157836914,,427003.3394197424
711,394.8717956542969,153.91941833496094,170.03663635253906,25.787546157836914,,427003.3433271628
712,217.1794891357422,156.3369903564453,178.09524536132812,25.787546157836914,,427003.34723458317
713,0.0,34.24908447265625,155.93406677246094,25.787546157836914,,427003.35114200355
714,67.69230651855469,8.461538314819336,151.90475463867188,25.787546157836914,,427003.35504942393
715,292.9303894042969,120.87911987304688,174.06593322753906,25.787546157836914,,427003.3589568443
716,180.91575622558594,221.2087860107422,260.29302978515625,25.787546157836914,,427003.3628642647
717,4.029304027557373,88.64469146728516,192.60073852539062,25.787546157836914,,427003.3667716851
718,16.5201473236084,0.0,87.83882904052734,25.787546157836914,,427003.37067910546
719,185.75091552734375,94.28571319580078,163.58973693847656,25.787546157836914,,427003.37458652584
720,347.3260192871094,184.54212951660156,189.37728881835938,25.787546157836914,,427003.3784939462
721,119.67032623291016,84.21245574951172,120.47618865966797,25.787546157836914,,427003.38240136666
722,0.0,6.043956279754639,79.78022003173828,25.787546157836914,,427003.38630878704
723,84.21245574951172,72.52747344970703,156.73992919921875,25.787546157836914,,427003.3902162074
724,255.86080932617188,202.6739959716797,228.05860900878906,25.787546157836914,,427003.3941236278
725,141.8314971923828,129.74359130859375,163.1868133544922,25.787546157836914,,427003.3980310482
726,13.699633598327637,6.043956279754639,73.73626708984375,25.787546157836914,,427003.40193846857
727,0.0,59.230770111083984,168.8278350830078,25.787546157836914,,427003.40584588895
728,199.45054626464844,199.04762268066406,259.8901062011719,25.787546157836914,,427003.40975330933
729,246.996337890625,154.72528076171875,166.41026306152344,25.787546157836914,,427003.4136607297
730,10.476190567016602,25.787546157836914,90.65933990478516,25.787546157836914,,427003.4175681501
731,10.476190567016602,19.340660095214844,137.39926147460938,25.787546157836914,,427003.4214755705
732,315.8974304199219,124.5054931640625,187.36264038085938,25.787546157836914,,427003.42538299086
733,413.80950927734375,161.97802734375,138.60806274414062,25.787546157836914,,427003.4292904113
734,89.45054626464844,50.769229888916016,97.1062240600586,25.787546157836914,,427003.4331978317
735,0.0,6.043956279754639,114.83516693115234,25.787546157836914,,427003.43710525206
736,129.74359130859375,93.07691955566406,189.37728881835938,25.787546157836914,,427003.44101267244
737,361.025634765625,185.75091552734375,177.6923065185547,25.787546157836914,,427003.4449200928
738,184.54212951660156,85.01831817626953,118.86447143554688,25.787546157836914,,427003.4488275132
739,0.0,9.670330047607422,170.03663635253906,25.787546157836914,,427003.4527349336
740,151.90475463867188,53.18681335449219,177.6923065185547,25.787546157836914,,427003.45664235397
741,469.4139099121094,162.38095092773438,146.26373291015625,25.787546157836914,,427003.46054977435
742,270.3663024902344,120.47618865966797,140.62271118164062,25.787546157836914,,427003.4644571947
743,0.0,18.53479766845703,114.43223571777344,25.787546157836914,,427003.4683646151
744,52.380950927734375,29.010988235473633,137.8022003173828,25.787546157836914,,427003.4722720355
745,381.97802734375,140.21978759765625,164.39559936523438,25.787546157836914,,427003.47617945593
746,316.70330810546875,169.23077392578125,176.08058166503906,25.787546157836914,,427003.4800868763
747,6.849816799163818,54.79853439331055,153.91941833496094,25.787546157836914,,427003.4839942967
748,0.0,10.073260307312012,146.26373291015625,25.787546157836914,,427003.4879017171
749,275.6044006347656,101.13552856445312,170.43955993652344,25.787546157836914,,427003.49180913746
750,322.3443298339844,199.45054626464844,203.4798583984375,25.787546157836914,,427003.49571655784
751,16.923076629638672,103.55311584472656,192.60073852539062,25.787546157836914,,427003.4996239782
752,0.0,4.835165023803711,94.68864440917969,25.787546157836914,,427003.5035313986
753,205.4945068359375,70.10989379882812,130.54945373535156,25.787546157836914,,427003.507438819
754,404.945068359375,178.09524536132812,176.08058166503906,25.787546157836914,,427003.51134623936
755,162.7838897705078,99.92674255371094,125.71428680419922,25.787546157836914,,427003.51525365975
756,0.0,8.864468574523926,77.36264038085938,25.787546157836914,,427003.5191610801
757,111.61172485351562,45.53113555908203,128.93772888183594,25.787546157836914,,427003.52306850057
758,356.996337890625,172.05128479003906,187.36264038085938,25.787546157836914,,427003.52697592095
759,219.1941375732422,141.8314971923828,165.60440063476562,25.787546157836914,,427003.53088334133
760,1.6117216348648071,20.549449920654297,133.77288818359375,25.787546157836914,,427003.5347907617
761,33.44322204589844,21.355310440063477,156.73992919921875,25.787546157836914,,427003.5386981821
762,32.63736343383789,190.58607482910156,278.8278503417969,25.787546157836914,,427003.5426056025
763,64.46886444091797,209.92674255371094,253.04029846191406,25.787546157836914,,427003.54651302285
764,58.42490768432617,35.86080551147461,87.43589782714844,25.787546157836914,,427003.55042044324
765,0.0,10.073260307312012,107.17948913574219,25.787546157836914,,427003.5543278636
766,231.6849822998047,101.53845977783203,178.4981689453125,25.787546157836914,,427003.558235284
767,441.20880126953125,168.02197265625,151.5018310546875,25.787546157836914,,427003.5621427044
768,143.84616088867188,66.88644409179688,95.0915756225586,25.787546157836914,,427003.56605012476
769,0.0,9.267398834228516,111.61172485351562,25.787546157836914,,427003.5699575452
770,190.58607482910156,65.27472686767578,161.97802734375,25.787546157836914,,427003.5738649656
771,437.5824279785156,170.03663635253906,160.76922607421875,25.787546157836914,,427003.57777238596
772,170.8424835205078,112.4175796508789,145.45787048339844,25.787546157836914,,427003.58167980635
773,0.0,10.476190567016602,174.06593322753906,25.787546157836914,,427003.5855872267
774,62.4542121887207,54.79853439331055,234.5054931640625,25.787546157836914,,427003.5894946471
775,352.1611633300781,179.3040313720703,205.4945068359375,25.787546157836914,,427003.5934020675
776,321.94140625,129.74359130859375,120.87911987304688,25.787546157836914,,427003.5973094879
777,8.864468574523926,21.355310440063477,134.57875061035156,25.787546157836914,,427003.60121690825
778,38.68132019042969,14.908425331115723,169.63369750976562,25.787546157836914,,427003.60512432863
779,379.5604248046875,107.5824203491211,148.27838134765625,25.787546157836914,,427003.609031749
780,405.75091552734375,152.3076934814453,140.21978759765625,25.787546157836914,,427003.6129391694
781,54.79853439331055,48.75457763671875,112.82051086425781,25.787546157836914,,427003.61684658984
782,0.0,8.864468574523926,102.34432220458984,25.787546157836914,,427003.6207540102
783,250.62271118164062,80.989013671875,143.04029846191406,25.787546157836914,,427003.6246614306
784,312.6739807128906,190.1831512451172,193.003662109375,25.787546157836914,,427003.628568851
785,52.380950927734375,109.5970687866211,208.7179412841797,25.787546157836914,,427003.63247627136
786,0.0,12.087912559509277,146.6666717529297,25.787546157836914,,427003.63638369174
787,187.36264038085938,50.769229888916016,120.07325744628906,25.787546157836914,,427003.6402911121
788,410.989013671875,172.45420837402344,172.05128479003906,25.787546157836914,,427003.6441985325
789,157.94871520996094,126.52014923095703,169.23077392578125,25.787546157836914,,427003.6481059529
790,0.0,17.326007843017578,117.65567779541016,25.787546157836914,,427003.65201337327
791,126.92308044433594,20.952381134033203,107.9853515625,25.787546157836914,,427003.65592079365
792,318.71795654296875,157.54579162597656,193.40660095214844,25.787546157836914,,427003.65982821403
793,147.06959533691406,172.85714721679688,204.2857208251953,25.787546157836914,,427003.6637356344
794,3.2234432697296143,29.816850662231445,97.9120864868164,25.787546157836914,,427003.66764305485
795,51.17216110229492,4.432234287261963,91.06227111816406,25.787546157836914,,427003.67155047524
796,122.4908447265625,143.44322204589844,225.23809814453125,25.787546157836914,,427003.6754578956
797,104.76190185546875,218.7912139892578,259.0842590332031,25.787546157836914,,427003.679365316
798,55.60439682006836,58.82783889770508,114.83516693115234,25.787546157836914,,427003.6832727364
799,0.0,4.432234287261963,85.82417297363281,25.787546157836914,,427003.68718015676
800,168.8278350830078,88.24176025390625,161.97802734375,25.787546157836914,,427003.69108757714
801,406.1538391113281,174.4688720703125,172.05128479003906,25.787546157836914,,427003.6949949975
802,180.91575622558594,82.19779968261719,105.16483306884766,25.787546157836914,,427003.6989024179
803,0.0,7.252747058868408,86.22710418701172,25.787546157836914,,427003.7028098383
804,78.97435760498047,66.88644409179688,165.60440063476562,25.787546157836914,,427003.70671725867
805,373.9194030761719,180.5128173828125,195.018310546875,25.787546157836914,,427003.71062467905
806,256.6666564941406,119.67032623291016,126.92308044433594,25.787546157836914,,427003.7145320995
807,10.879120826721191,6.4468865394592285,81.3919448852539,25.787546157836914,,427003.7184395199
808,0.0,65.27472686767578,213.15017700195312,25.787546157836914,,427003.72234694025
809,209.12088012695312,205.09156799316406,282.4542236328125,25.787546157836914,,427003.72625436063
810,321.94140625,150.6959686279297,145.05494689941406,25.787546157836914,,427003.730161781
811,39.89011001586914,29.010988235473633,100.32967376708984,25.787546157836914,,427003.7340692014
812,3.626373529434204,11.684981346130371,130.95237731933594,25.787546157836914,,427003.7379766218
813,308.24176025390625,97.1062240600586,155.93406677246094,25.787546157836914,,427003.74188404216
814,415.4212341308594,162.7838897705078,144.65200805664062,25.787546157836914,,427003.74579146254
815,105.16483306884766,59.230770111083984,122.0879135131836,25.787546157836914,,427003.7496988829
816,0.0,7.655677795410156,124.1025619506836,25.787546157836914,,427003.7536063033
817,199.45054626464844,72.12454223632812,146.26373291015625,25.787546157836914,,427003.7575137237
818,437.5824279785156,172.45420837402344,159.1575164794922,25.787546157836914,,427003.7614211441
819,184.94505310058594,99.12088012695312,140.62271118164062,25.787546157836914,,427003.7653285645
820,0.0,9.670330047607422,151.09890747070312,25.787546157836914,,427003.7692359849
821,72.93040466308594,57.21611785888672,191.7948760986328,25.787546157836914,,427003.77314340527
822,373.5164794921875,170.43955993652344,175.27471923828125,25.787546157836914,,427003.77705082565
823,267.1428527832031,153.5164794921875,186.15383911132812,25.787546157836914,,427003.78095824603
824,0.0,49.96337127685547,209.92674255371094,25.787546157836914,,427003.7848656664
825,66.88644409179688,12.490842819213867,142.63735961914062,25.787546157836914,,427003.7887730868
826,392.8571472167969,120.07325744628906,152.7106170654297,25.787546157836914,,427003.7926805072
827,329.19415283203125,161.57508850097656,160.36630249023438,25.787546157836914,,427003.79658792756
828,14.908425331115723,45.128204345703125,110.0,25.787546157836914,,427003.80049534794
829,10.073260307312012,5.641025543212891,114.43223571777344,25.787546157836914,,427003.8044027683
830,265.9340515136719,93.88278198242188,162.7838897705078,25.787546157836914,,427003.80831018876
831,323.9560546875,188.1685028076172,184.54212951660156,25.787546157836914,,427003.81221760914
832,54.79853439331055,85.01831817626953,159.56044006347656,25.787546157836914,,427003.8161250295
833,0.4029304087162018,4.835165023803711,126.92308044433594,25.787546157836914,,427003.8200324499
834,133.36996459960938,71.72161102294922,155.12820434570312,25.787546157836914,,427003.8239398703
835,134.57875061035156,234.90843200683594,281.6483459472656,25.787546157836914,,427003.82784729067
836,20.952381134033203,153.5164794921875,224.43223571777344,25.787546157836914,,427003.83175471105
837,22.96703338623047,4.432234287261963,74.13919067382812,25.787546157836914,,427003.83566213143
838,43.91941452026367,45.53113555908203,134.1758270263672,25.787546157836914,,427003.8395695518
839,347.3260192871094,164.7985382080078,191.39193725585938,25.787546157836914,,427003.8434769722
840,317.1062316894531,130.14651489257812,128.13186645507812,25.787546157836914,,427003.8473843926
841,10.073260307312012,19.340660095214844,75.75091552734375,25.787546157836914,,427003.85129181296
842,8.864468574523926,22.564102172851562,124.1025619506836,25.787546157836914,,427003.8551992334
843,295.75091552734375,131.75823974609375,180.91575622558594,25.787546157836914,,427003.8591066538
844,280.8424987792969,184.13919067382812,192.1977996826172,25.787546157836914,,427003.86301407416
845,17.326007843017578,58.42490768432617,123.69963073730469,25.787546157836914,,427003.86692149454
846,0.0,12.893773078918457,143.04029846191406,25.787546157836914,,427003.8708289149
847,185.75091552734375,122.4908447265625,238.93772888183594,25.787546157836914,,427003.8747363353
848,425.0915832519531,180.5128173828125,161.57508850097656,25.787546157836914,,427003.8786437557
849,166.8131866455078,72.93040466308594,112.0146484375,25.787546157836914,,427003.88255117607
850,0.0,10.879120826721191,152.3076934814453,25.787546157836914,,427003.88645859645
851,175.6776580810547,56.81318664550781,170.8424835205078,25.787546157836914,,427003.8903660168
852,477.0696105957031,159.56044006347656,149.08424377441406,25.787546157836914,,427003.8942734372
853,251.42857360839844,105.56776428222656,120.87911987304688,25.787546157836914,,427003.8981808576
854,0.0,14.102563858032227,105.16483306884766,25.787546157836914,,427003.90208827803
855,90.25640869140625,29.010988235473633,129.74359130859375,25.787546157836914,,427003.9059956984
856,314.68865966796875,156.73992919921875,190.1831512451172,25.787546157836914,,427003.9099031188
857,246.996337890625,156.3369903564453,170.03663635253906,25.787546157836914,,427003.9138105392
858,15.714285850524902,34.24908447265625,164.7985382080078,25.787546157836914,,427003.91771795956
859,21.758241653442383,12.087912559509277,160.76922607421875,25.787546157836914,,427003.92162537994
860,358.20513916015625,100.32967376708984,141.8314971923828,25.787546157836914,,427003.9255328003
861,372.30767822265625,170.43955993652344,165.2014617919922,25.787546157836914,,427003.9294402207
862,24.578754425048828,68.0952377319336,130.54945373535156,25.787546157836914,,427003.9333476411
863,0.0,5.238095283508301,92.67399597167969,25.787546157836914,,427003.93725506146
864,198.24176025390625,80.5860824584961,148.27838134765625,25.787546157836914,,427003.94116248185
865,248.60806274414062,207.5091552734375,230.4761962890625,25.787546157836914,,427003.9450699022
866,37.06959533691406,118.05860900878906,179.3040313720703,25.787546157836914,,427003.94897732267
867,0.0,6.4468865394592285,92.27106475830078,25.787546157836914,,427003.95288474305
868,99.92674255371094,59.63370132446289,152.3076934814453,25.787546157836914,,427003.95679216343
869,206.3003692626953,211.53846740722656,245.7875518798828,25.787546157836914,,427003.9606995838
870,57.619049072265625,164.39559936523438,222.8205108642578,25.787546157836914,,427003.9646070042
871,0.4029304087162018,16.923076629638672,96.30036926269531,25.787546157836914,,427003.9685144246
872,84.61538696289062,19.340660095214844,103.55311584472656,25.787546157836914,,427003.97242184496
873,352.1611633300781,140.21978759765625,176.88644409179688,25.787546157836914,,427003.97632926534
874,305.018310546875,150.6959686279297,154.72528076171875,25.787546157836914,,427003.9802366857
875,37.875457763671875,29.010988235473633,83.4065933227539,25.787546157836914,,427003.9841441061
876,0.0,10.476190567016602,99.52381134033203,25.787546157836914,,427003.9880515265
877,226.44688415527344,108.38827514648438,176.08058166503906,25.787546157836914,,427003.99195894686
878,373.9194030761719,171.24542236328125,161.97802734375,25.787546157836914,,427003.9958663673
879,95.4945068359375,62.0512809753418,105.16483306884766,25.787546157836914,,427003.9997737877
880,8.864468574523926,0.4029304087162018,131.35531616210938,25.787546157836914,,427004.00368120807
881,23.369962692260742,117.65567779541016,261.9047546386719,25.787546157836914,,427004.00758862845
882,133.77288818359375,236.5201416015625,279.6336975097656,25.787546157836914,,427004.0114960488
883,132.56410217285156,103.55311584472656,134.981689453125,25.787546157836914,,427004.0154034692
884,0.0,8.864468574523926,109.5970687866211,25.787546157836914,,427004.0193108896
885,124.5054931640625,51.978023529052734,169.63369750976562,25.787546157836914,,427004.02321831
886,458.937744140625,163.99267578125,166.8131866455078,25.787546157836914,,427004.02712573035
887,303.4065856933594,121.68498229980469,115.23809814453125,25.787546157836914,,427004.03103315074
888,0.0,18.937728881835938,108.38827514648438,25.787546157836914,,427004.0349405711
889,56.00732421875,18.937728881835938,151.90475463867188,25.787546157836914,,427004.0388479915
890,386.4102478027344,122.8937759399414,163.58973693847656,25.787546157836914,,427004.04275541194
891,369.0842590332031,153.11355590820312,130.54945373535156,25.787546157836914,,427004.0466628323
892,31.0256404876709,42.30769348144531,155.12820434570312,25.787546157836914,,427004.0505702527
893,3.2234432697296143,8.461538314819336,199.45054626464844,25.787546157836914,,427004.0544776731
894,283.26007080078125,95.0915756225586,168.42491149902344,25.787546157836914,,427004.05838509346
895,374.3223571777344,178.90109252929688,164.7985382080078,25.787546157836914,,427004.06229251385
896,95.0915756225586,76.15384674072266,156.73992919921875,25.787546157836914,,427004.0661999342
897,0.0,8.461538314819336,130.95237731933594,25.787546157836914,,427004.0701073546
898,190.989013671875,63.663002014160156,131.75823974609375,25.787546157836914,,427004.074014775
899,453.69964599609375,168.42491149902344,160.36630249023438,25.787546157836914,,427004.07792219537
900,188.974365234375,107.5824203491211,139.010986328125,25.787546157836914,,427004.08182961575
901,0.0,14.908425331115723,97.5091552734375,25.787546157836914,,427004.08573703613
902,125.31135559082031,33.0402946472168,116.44688415527344,25.787546157836914,,427004.0896444565
903,403.3333435058594,155.93406677246094,168.8278350830078,25.787546157836914,,427004.09355187695
904,214.35897827148438,156.73992919921875,182.12454223632812,25.787546157836914,,427004.09745929734
905,0.0,32.234432220458984,119.26740264892578,25.787546157836914,,427004.1013667177
906,65.27472686767578,8.058608055114746,99.52381134033203,25.787546157836914,,427004.1052741381
907,291.72161865234375,126.11721801757812,177.2893829345703,25.787546157836914,,427004.1091815585
908,185.34799194335938,196.63003540039062,219.1941375732422,25.787546157836914,,427004.11308897886
909,0.0,61.64834976196289,135.38461303710938,25.787546157836914,,427004.11699639924
910,32.234432220458984,0.0,106.37362670898438,25.787546157836914,,427004.1209038196
911,144.65200805664062,103.15018463134766,192.60073852539062,25.787546157836914,,427004.12481124
912,246.1904754638672,203.4798583984375,219.59707641601562,25.787546157836914,,427004.1287186604
913,124.5054931640625,82.19779968261719,120.07325744628906,25.787546157836914,,427004.13262608077
914,0.0,4.835165023803711,83.4065933227539,25.787546157836914,,427004.13653350115
915,89.04762268066406,72.93040466308594,159.56044006347656,25.787546157836914,,427004.1404409216
916,266.73992919921875,201.86813354492188,221.61172485351562,25.787546157836914,,427004.144348342
917,134.57875061035156,134.57875061035156,178.09524536132812,25.787546157836914,,427004.14825576235
918,16.5201473236084,6.849816799163818,89.45054626464844,25.787546157836914,,427004.15216318273
919,0.0,61.24542236328125,173.6630096435547,25.787546157836914,,427004.1560706031
920,200.6593475341797,201.86813354492188,261.9047546386719,25.787546157836914,,427004.1599780235
921,297.76556396484375,144.65200805664062,142.63735961914062,25.787546157836914,,427004.1638854439
922,24.175825119018555,24.175825119018555,79.78022003173828,25.787546157836914,,427004.16779286426
923,14.102563858032227,14.908425331115723,122.0879135131836,25.787546157836914,,427004.17170028464
924,332.8205261230469,114.83516693115234,168.8278350830078,25.787546157836914,,427004.175607705
925,340.4761962890625,178.4981689453125,166.8131866455078,25.787546157836914,,427004.1795151254
926,38.27838897705078,62.4542121887207,118.46154022216797,25.787546157836914,,427004.1834225458
927,0.4029304087162018,3.2234432697296143,132.56410217285156,25.787546157836914,,427004.1873299662
928,122.4908447265625,96.70330047607422,211.53846740722656,25.787546157836914,,427004.1912373866
929,312.6739807128906,195.8241729736328,196.63003540039062,25.787546157836914,,427004.195144807
930,162.7838897705078,87.83882904052734,124.9084243774414,25.787546157836914,,427004.19905222737
931,0.0,9.267398834228516,163.1868133544922,25.787546157836914,,427004.20295964775
932,155.5311279296875,51.17216110229492,178.90109252929688,25.787546157836914,,427004.20686706813
933,477.8754577636719,157.94871520996094,143.44322204589844,25.787546157836914,,427004.2107744885
934,267.94873046875,118.46154022216797,141.8314971923828,25.787546157836914,,427004.2146819089
935,0.0,18.53479766845703,112.0146484375,25.787546157836914,,427004.2185893293
936,62.85714340209961,25.787546157836914,115.23809814453125,25.787546157836914,,427004.22249674966
937,350.952392578125,139.8168487548828,168.42491149902344,25.787546157836914,,427004.22640417004
938,294.945068359375,161.97802734375,170.03663635253906,25.787546157836914,,427004.2303115904
939,14.505494117736816,43.516483306884766,124.5054931640625,25.787546157836914,,427004.23421901086
940,0.0,11.684981346130371,143.04029846191406,25.787546157836914,,427004.23812643124
941,200.25640869140625,112.0146484375,193.40660095214844,25.787546157836914,,427004.2420338516
942,270.3663024902344,203.88278198242188,213.15017700195312,25.787546157836914,,427004.245941272
943,26.593406677246094,103.15018463134766,215.970703125,25.787546157836914,,427004.2498486924
944,0.0,6.849816799163818,122.0879135131836,25.787546157836914,,427004.25375611277
945,218.7912139892578,67.69230651855469,124.1025619506836,25.787546157836914,,427004.25766353315
946,423.0769348144531,174.87179565429688,169.63369750976562,25.787546157836914,,427004.26157095353
947,165.60440063476562,98.71794891357422,121.68498229980469,25.787546157836914,,427004.2654783739
948,0.0,8.461538314819336,74.54212188720703,25.787546157836914,,427004.2693857943
949,115.64102935791016,45.53113555908203,125.31135559082031,25.787546157836914,,427004.2732932147
950,375.1282043457031,171.64834594726562,184.54212951660156,25.787546157836914,,427004.27720063506
951,253.84616088867188,132.1611785888672,144.65200805664062,25.787546157836914,,427004.2811080555
952,10.476190567016602,16.5201473236084,114.43223571777344,25.787546157836914,,427004.2850154759
953,37.06959533691406,20.549449920654297,142.23443603515625,25.787546157836914,,427004.28892289626
954,146.6666717529297,165.60440063476562,236.11721801757812,25.787546157836914,,427004.29283031664
955,170.03663635253906,193.40660095214844,224.8351593017578,25.787546157836914,,427004.296737737
956,43.91941452026367,42.30769348144531,109.19413757324219,25.787546157836914,,427004.3006451574
957,0.0,12.490842819213867,120.87911987304688,25.787546157836914,,427004.3045525778
958,191.39193725585938,117.65567779541016,204.2857208251953,25.787546157836914,,427004.30845999817
959,410.5860900878906,174.06593322753906,164.39559936523438,25.787546157836914,,427004.31236741855
960,145.45787048339844,64.06593322753906,87.83882904052734,25.787546157836914,,427004.31627483893
961,0.0,9.670330047607422,104.76190185546875,25.787546157836914,,427004.3201822593
962,194.61538696289062,66.48351287841797,160.36630249023438,25.787546157836914,,427004.3240896797
963,446.4468994140625,174.4688720703125,158.35165405273438,25.787546157836914,,427004.32799710013
964,177.6923065185547,114.43223571777344,152.3076934814453,25.787546157836914,,427004.3319045205
965,0.0,14.908425331115723,157.14285278320312,25.787546157836914,,427004.3358119409
966,119.26740264892578,33.0402946472168,157.54579162597656,25.787546157836914,,427004.3397193613
967,446.8498229980469,147.06959533691406,160.36630249023438,25.787546157836914,,427004.34362678166
968,313.8827819824219,129.3406524658203,117.65567779541016,25.787546157836914,,427004.34753420204
969,14.908425331115723,18.53479766845703,139.41392517089844,25.787546157836914,,427004.3514416224
970,0.0,22.564102172851562,216.37362670898438,25.787546157836914,,427004.3553490428
971,273.5897521972656,136.1904754638672,196.22711181640625,25.787546157836914,,427004.3592564632
972,387.6190490722656,163.1868133544922,147.06959533691406,25.787546157836914,,427004.36316388356
973,60.43955993652344,49.56044006347656,134.1758270263672,25.787546157836914,,427004.36707130395
974,0.0,9.670330047607422,128.13186645507812,25.787546157836914,,427004.3709787243
975,267.94873046875,83.80952453613281,144.65200805664062,25.787546157836914,,427004.37488614477
976,327.5824279785156,197.03297424316406,191.7948760986328,25.787546157836914,,427004.37879356515
977,54.79853439331055,112.4175796508789,205.4945068359375,25.787546157836914,,427004.38270098553
978,0.0,11.282051086425781,146.26373291015625,25.787546157836914,,427004.3866084059
979,190.1831512451172,53.99267578125,121.28205108642578,25.787546157836914,,427004.3905158263
980,423.0769348144531,177.2893829345703,175.27471923828125,25.787546157836914,,427004.3944232467
981,163.99267578125,124.9084243774414,151.90475463867188,25.787546157836914,,427004.39833066706
982,0.0,14.102563858032227,86.22710418701172,25.787546157836914,,427004.40223808744
983,114.43223571777344,27.399267196655273,111.20879364013672,25.787546157836914,,427004.4061455078
984,360.6227111816406,155.93406677246094,180.91575622558594,25.787546157836914,,427004.4100529282
985,220.40292358398438,166.00732421875,188.974365234375,25.787546157836914,,427004.4139603486
986,0.0,37.06959533691406,126.92308044433594,25.787546157836914,,427004.41786776896
987,48.35165023803711,4.835165023803711,103.15018463134766,25.787546157836914,,427004.4217751894
988,130.54945373535156,139.8168487548828,218.38827514648438,25.787546157836914,,427004.4256826098
989,70.10989379882812,235.7142791748047,286.4835205078125,25.787546157836914,,427004.42959003017
990,25.384614944458008,75.75091552734375,155.12820434570312,25.787546157836914,,427004.43349745055
991,9.267398834228516,1.2087912559509277,97.9120864868164,25.787546157836914,,427004.4374048709
992,158.35165405273438,91.46520233154297,170.8424835205078,25.787546157836914,,427004.4413122913
993,391.6483459472656,178.09524536132812,177.2893829345703,25.787546157836914,,427004.4452197117
994,187.76556396484375,82.19779968261719,100.32967376708984,25.787546157836914,,427004.4491271321
995,0.0,8.461538314819336,81.79486846923828,25.787546157836914,,427004.45303455245
996,118.05860900878906,60.842491149902344,148.27838134765625,25.787546157836914,,427004.45694197284
997,425.0915832519531,172.45420837402344,175.6776580810547,25.787546157836914,,427004.4608493932
998,262.71063232421875,117.25274658203125,121.28205108642578,25.787546157836914,,427004.4647568136
999,0.0,12.893773078918457,90.65933990478516,25.787546157836914,,427004.46866423404
1000,26.593406677246094,37.47252655029297,160.36630249023438,25.787546157836914,,427004.4725716544
1001,214.76190185546875,179.3040313720703,236.5201416015625,25.787546157836914,,427004.4764790748
1002,216.37362670898438,176.4835205078125,186.55677795410156,25.787546157836914,,427004.4803864952
1003,32.234432220458984,26.593406677246094,103.15018463134766,25.787546157836914,,427004.48429391556
1004,0.0,31.0256404876709,209.12088012695312,25.787546157836914,,427004.48820133595
1005,229.6703338623047,149.4871826171875,254.65200805664062,25.787546157836914,,427004.4921087563
1006,425.0915832519531,170.03663635253906,144.65200805664062,25.787546157836914,,427004.4960161767
1007,124.9084243774414,56.00732421875,115.23809814453125,25.787546157836914,,427004.4999235971
1008,0.0,9.267398834228516,119.26740264892578,25.787546157836914,,427004.5038310175
1009,211.53846740722656,72.52747344970703,141.42857360839844,25.787546157836914,,427004.50773843785
1010,457.72894287109375,170.43955993652344,156.3369903564453,25.787546157836914,,427004.51164585823
1011,197.8388214111328,95.0915756225586,136.996337890625,25.787546157836914,,427004.5155532786
1012,0.0,10.476190567016602,149.89010620117188,25.787546157836914,,427004.51946069906
1013,118.46154022216797,51.17216110229492,177.2893829345703,25.787546157836914,,427004.52336811944
1014,435.970703125,161.1721649169922,159.56044006347656,25.787546157836914,,427004.5272755398
1015,274.79852294921875,149.08424377441406,183.73626708984375,25.787546157836914,,427004.5311829602
1016,0.0,48.35165023803711,211.53846740722656,25.787546157836914,,427004.5350903806
1017,72.12454223632812,13.296703338623047,145.05494689941406,25.787546157836914,,427004.53899780096
1018,409.3772888183594,120.47618865966797,149.08424377441406,25.787546157836914,,427004.54290522134
1019,337.6556701660156,159.56044006347656,161.1721649169922,25.787546157836914,,427004.5468126417
1020,12.087912559509277,43.91941452026367,105.97069549560547,25.787546157836914,,427004.5507200621
1021,12.490842819213867,6.043956279754639,91.06227111816406,25.787546157836914,,427004.5546274825
1022,275.6044006347656,93.47985076904297,151.09890747070312,25.787546157836914,,427004.55853490287
1023,342.4908447265625,182.5274658203125,178.90109252929688,25.787546157836914,,427004.56244232325
1024,60.842491149902344,81.3919448852539,149.4871826171875,25.787546157836914,,427004.5663497437
1025,0.0,4.835165023803711,135.7875518798828,25.787546157836914,,427004.5702571641
1026,165.2014617919922,69.30403137207031,163.58973693847656,25.787546157836914,,427004.57416458445
1027,216.37362670898438,213.55311584472656,241.75823974609375,25.787546157836914,,427004.57807200484
1028,73.33333587646484,129.74359130859375,176.08058166503906,25.787546157836914,,427004.5819794252
1029,23.369962692260742,4.029304027557373,68.9011001586914,25.787546157836914,,427004.5858868456
1030,38.68132019042969,49.157508850097656,141.8314971923828,25.787546157836914,,427004.589794266
1031,316.30035400390625,173.26007080078125,202.6739959716797,25.787546157836914,,427004.59370168636
1032,298.1684875488281,134.981689453125,136.996337890625,25.787546157836914,,427004.59760910674
1033,19.340660095214844,16.117216110229492,72.12454223632812,25.787546157836914,,427004.6015165271
1034,0.0,31.831501007080078,141.8314971923828,25.787546157836914,,427004.6054239475
1035,230.07325744628906,153.91941833496094,223.22344970703125,25.787546157836914,,427004.6093313679
1036,262.71063232421875,186.15383911132812,196.63003540039062,25.787546157836914,,427004.6132387883
1037,22.564102172851562,56.81318664550781,124.1025619506836,25.787546157836914,,427004.6171462087
1038,0.0,14.102563858032227,148.27838134765625,25.787546157836914,,427004.6210536291
1039,178.4981689453125,123.69963073730469,238.53480529785156,25.787546157836914,,427004.62496104947
1040,415.018310546875,180.91575622558594,167.61904907226562,25.787546157836914,,427004.62886846985
1041,167.2161102294922,71.72161102294922,96.30036926269531,25.787546157836914,,427004.63277589023
1042,0.0,11.282051086425781,103.15018463134766,25.787546157836914,,427004.6366833106
1043,178.4981689453125,57.21611785888672,146.26373291015625,25.787546157836914,,427004.640590731
1044,444.8351745605469,168.42491149902344,160.76922607421875,25.787546157836914,,427004.6444981514
1045,190.58607482910156,118.46154022216797,146.26373291015625,25.787546157836914,,427004.64840557176
1046,0.0,15.311355590820312,160.76922607421875,25.787546157836914,,427004.65231299214
1047,103.55311584472656,27.399267196655273,168.42491149902344,25.787546157836914,,427004.6562204125
1048,314.68865966796875,160.76922607421875,191.39193725585938,25.787546157836914,,427004.66012783296
1049,215.56776428222656,164.7985382080078,181.72161865234375,25.787546157836914,,427004.66403525334
1050,8.461538314819336,35.05494689941406,166.8131866455078,25.787546157836914,,427004.6679426737
1051,33.44322204589844,11.282051086425781,155.5311279296875,25.787546157836914,,427004.6718500941
1052,375.1282043457031,99.52381134033203,136.996337890625,25.787546157836914,,427004.6757575145
1053,387.6190490722656,165.60440063476562,159.1575164794922,25.787546157836914,,427004.67966493487
1054,33.846153259277344,64.06593322753906,122.4908447265625,25.787546157836914,,427004.68357235525
1055,0.0,7.252747058868408,92.27106475830078,25.787546157836914,,427004.68747977563
1056,247.8022003173828,74.54212188720703,135.7875518798828,25.787546157836914,,427004.691387196
1057,390.4395751953125,177.6923065185547,176.4835205078125,25.787546157836914,,427004.6952946164
1058,94.28571319580078,98.31501770019531,137.8022003173828,25.787546157836914,,427004.6992020368
1059,0.0,7.655677795410156,93.88278198242188,25.787546157836914,,427004.70310945716
1060,98.71794891357422,62.4542121887207,159.96336364746094,25.787546157836914,,427004.7070168776
1061,182.12454223632812,218.7912139892578,250.62271118164062,25.787546157836914,,427004.710924298
1062,52.78388214111328,179.3040313720703,255.05494689941406,25.787546157836914,,427004.71483171836
1063,2.0146520137786865,23.369962692260742,127.72893524169922,25.787546157836914,,427004.71873913874
1064,89.04762268066406,18.53479766845703,102.34432220458984,25.787546157836914,,427004.7226465591
1065,363.8461608886719,144.24908447265625,176.08058166503906,25.787546157836914,,427004.7265539795
1066,316.30035400390625,152.3076934814453,152.7106170654297,25.787546157836914,,427004.7304613999
1067,41.5018310546875,29.010988235473633,79.78022003173828,25.787546157836914,,427004.73436882027
1068,4.432234287261963,10.073260307312012,96.30036926269531,25.787546157836914,,427004.73827624065
1069,242.56410217285156,112.4175796508789,174.06593322753906,25.787546157836914,,427004.74218366103
1070,373.1135559082031,174.87179565429688,166.41026306152344,25.787546157836914,,427004.7460910814
1071,100.32967376708984,60.03662872314453,99.52381134033203,25.787546157836914,,427004.7499985018
1072,0.0,3.2234432697296143,124.1025619506836,25.787546157836914,,427004.75390592223
1073,49.157508850097656,109.5970687866211,244.981689453125,25.787546157836914,,427004.7578133426
1074,269.1575012207031,206.7032928466797,227.65567016601562,25.787546157836914,,427004.761720763
1075,203.07691955566406,89.85347747802734,104.76190185546875,25.787546157836914,,427004.7656281834
1076,0.0,9.267398834228516,121.68498229980469,25.787546157836914,,427004.76953560376
1077,118.86447143554688,57.21611785888672,192.60073852539062,25.787546157836914,,427004.77344302414
1078,451.6849670410156,170.8424835205078,175.27471923828125,25.787546157836914,,427004.7773504445
1079,301.79486083984375,120.47618865966797,116.44688415527344,25.787546157836914,,427004.7812578649
1080,0.0,18.53479766845703,105.56776428222656,25.787546157836914,,427004.7851652853
1081,60.43955993652344,19.743589401245117,144.24908447265625,25.787546157836914,,427004.78907270567
1082,392.05126953125,126.52014923095703,164.39559936523438,25.787546157836914,,427004.79298012605
1083,367.0696105957031,157.54579162597656,135.38461303710938,25.787546157836914,,427004.7968875464
1084,32.234432220458984,43.516483306884766,157.54579162597656,25.787546157836914,,427004.80079496687
1085,0.0,8.864468574523926,203.88278198242188,25.787546157836914,,427004.80470238725
1086,292.1245422363281,97.5091552734375,169.23077392578125,25.787546157836914,,427004.80860980763
1087,445.23809814453125,167.2161102294922,146.26373291015625,25.787546157836914,,427004.812517228
1088,124.9084243774414,67.69230651855469,123.29669952392578,25.787546157836914,,427004.8164246484
1089,0.0,8.461538314819336,107.17948913574219,25.787546157836914,,427004.8203320688
1090,182.12454223632812,68.0952377319336,139.8168487548828,25.787546157836914,,427004.82423948916
1091,375.1282043457031,186.15383911132812,185.34799194335938,25.787546157836914,,427004.82814690954
1092,152.7106170654297,120.47618865966797,176.4835205078125,25.787546157836914,,427004.8320543299
1093,0.0,15.311355590820312,123.29669952392578,25.787546157836914,,427004.8359617503
1094,121.28205108642578,34.652015686035156,118.46154022216797,25.787546157836914,,427004.8398691707
1095,406.5567626953125,157.94871520996094,168.02197265625,25.787546157836914,,427004.84377659106
1096,220.8058624267578,156.3369903564453,182.12454223632812,25.787546157836914,,427004.8476840115
1097,0.0,32.234432220458984,123.29669952392578,25.787546157836914,,427004.8515914319
1098,49.96337127685547,11.684981346130371,109.19413757324219,25.787546157836914,,427004.85549885227
1099,240.14651489257812,134.57875061035156,186.95970153808594,25.787546157836914,,427004.85940627265
1100,175.27471923828125,217.58241271972656,255.45787048339844,25.787546157836914,,427004.86331369303
1101,5.641025543212891,78.97435760498047,174.06593322753906,25.787546157836914,,427004.8672211134
1102,20.549449920654297,0.0,86.22710418701172,25.787546157836914,,427004.8711285338
1103,191.39193725585938,97.5091552734375,166.41026306152344,25.787546157836914,,427004.8750359542
1104,353.3699645996094,187.36264038085938,188.57142639160156,25.787546157836914,,427004.87894337456
1105,139.41392517089844,80.5860824584961,111.61172485351562,25.787546157836914,,427004.88285079494
1106,2.0146520137786865,3.2234432697296143,99.12088012695312,25.787546157836914,,427004.8867582153
1107,55.20146560668945,79.78022003173828,186.55677795410156,25.787546157836914,,427004.8906656357
1108,194.61538696289062,213.55311584472656,249.010986328125,25.787546157836914,,427004.89457305614
1109,134.57875061035156,128.93772888183594,165.2014617919922,25.787546157836914,,427004.8984804765
1110,19.340660095214844,4.835165023803711,72.93040466308594,25.787546157836914,,427004.9023878969
1111,0.0,61.24542236328125,170.43955993652344,25.787546157836914,,427004.9062953173
1112,195.018310546875,201.06227111816406,259.0842590332031,25.787546157836914,,427004.91020273766
1113,294.1391906738281,144.24908447265625,146.26373291015625,25.787546157836914,,427004.91411015805
1114,27.399267196655273,23.369962692260742,80.18315124511719,25.787546157836914,,427004.9180175784
1115,12.087912559509277,15.311355590820312,122.0879135131836,25.787546157836914,,427004.9219249988
1116,335.23809814453125,113.22344207763672,169.23077392578125,25.787546157836914,,427004.9258324192
1117,409.3772888183594,161.97802734375,142.23443603515625,25.787546157836914,,427004.9297398396
1118,81.79486846923828,51.978023529052734,99.12088012695312,25.787546157836914,,427004.93364725995
1119,0.0,4.835165023803711,120.47618865966797,25.787546157836914,,427004.93755468033
1120,124.1025619506836,96.30036926269531,200.25640869140625,25.787546157836914,,427004.9414621008
1121,253.04029846191406,206.7032928466797,222.41758728027344,25.787546157836914,,427004.94536952116
1122,111.61172485351562,97.1062240600586,135.7875518798828,25.787546157836914,,427004.94927694154
1123,0.0,5.641025543212891,186.55677795410156,25.787546157836914,,427004.9531843619
1124,145.05494689941406,67.28937530517578,235.7142791748047,25.787546157836914,,427004.9570917823
1125,470.21978759765625,176.08058166503906,156.3369903564453,25.787546157836914,,427004.9609992027
1126,273.1867980957031,118.05860900878906,136.996337890625,25.787546157836914,,427004.96490662306
1127,0.0,19.743589401245117,114.43223571777344,25.787546157836914,,427004.96881404344
1128,81.79486846923828,22.96703338623047,114.43223571777344,25.787546157836914,,427004.9727214638
1129,419.047607421875,133.36996459960938,151.90475463867188,25.787546157836914,,427004.9766288842
1130,314.68865966796875,160.36630249023438,159.1575164794922,25.787546157836914,,427004.9805363046
1131,10.879120826721191,41.904762268066406,117.65567779541016,25.787546157836914,,427004.98444372497
1132,0.0,13.296703338623047,144.24908447265625,25.787546157836914,,427004.98835114535
1133,231.6849822998047,113.22344207763672,188.1685028076172,25.787546157836914,,427004.9922585658
1134,303.4065856933594,202.27105712890625,208.7179412841797,25.787546157836914,,427004.9961659862
1135,21.355310440063477,102.74725341796875,196.63003540039062,25.787546157836914,,427005.00007340655
1136,0.0,6.849816799163818,122.4908447265625,25.787546157836914,,427005.00398082694
1137,232.08790588378906,67.28937530517578,143.44322204589844,25.787546157836914,,427005.0078882473
1138,348.5347900390625,189.78021240234375,197.43589782714844,25.787546157836914,,427005.0117956677
1139,87.03296661376953,112.82051086425781,156.3369903564453,25.787546157836914,,427005.0157030881
1140,0.0,6.4468865394592285,79.78022003173828,25.787546157836914,,427005.01961050846
1141,120.47618865966797,47.5457878112793,128.53480529785156,25.787546157836914,,427005.02351792884
1142,382.3809509277344,173.26007080078125,184.54212951660156,25.787546157836914,,427005.0274253492
1143,250.62271118164062,131.75823974609375,143.44322204589844,25.787546157836914,,427005.0313327696
1144,7.655677795410156,14.908425331115723,123.29669952392578,25.787546157836914,,427005.03524019
1145,46.336997985839844,23.369962692260742,163.58973693847656,25.787546157836914,,427005.0391476104
1146,152.7106170654297,178.90109252929688,250.62271118164062,25.787546157836914,,427005.0430550308
1147,203.07691955566406,188.57142639160156,211.13552856445312,25.787546157836914,,427005.0469624512
1148,71.31867980957031,32.234432220458984,80.989013671875,25.787546157836914,,427005.0508698716
1149,0.0,12.087912559509277,115.23809814453125,25.787546157836914,,427005.05477729195
1150,237.3260040283203,101.94139099121094,180.10989379882812,25.787546157836914,,427005.05868471233
1151,363.4432373046875,184.54212951660156,178.09524536132812,25.787546157836914,,427005.0625921327
1152,62.85714340209961,83.003662109375,133.77288818359375,25.787546157836914,,427005.0664995531
1153,0.0,7.252747058868408,150.6959686279297,25.787546157836914,,427005.0704069735
1154,166.8131866455078,86.22710418701172,222.41758728027344,25.787546157836914,,427005.07431439386
1155,426.70330810546875,188.57142639160156,180.91575622558594,25.787546157836914,,427005.07822181424
1156,184.54212951660156,110.0,139.010986328125,25.787546157836914,,427005.0821292346
1157,0.0,12.087912559509277,170.03663635253906,25.787546157836914,,427005.08603665506
1158,116.44688415527344,50.36629867553711,216.77655029296875,25.787546157836914,,427005.08994407544
1159,458.1318664550781,167.2161102294922,171.64834594726562,25.787546157836914,,427005.0938514958
1160,339.6703186035156,127.32600402832031,116.84981536865234,25.787546157836914,,427005.0977589162
1161,4.029304027557373,21.758241653442383,99.52381134033203,25.787546157836914,,427005.1016663366
1162,48.75457763671875,15.714285850524902,120.47618865966797,25.787546157836914,,427005.10557375697
1163,388.8278503417969,115.23809814453125,149.4871826171875,25.787546157836914,,427005.10948117735
1164,399.70697021484375,159.1575164794922,142.63735961914062,25.787546157836914,,427005.11338859773
1165,60.03662872314453,49.157508850097656,111.61172485351562,25.787546157836914,,427005.1172960181
1166,0.0,8.461538314819336,129.74359130859375,25.787546157836914,,427005.1212034385
1167,201.46519470214844,99.52381134033203,186.95970153808594,25.787546157836914,,427005.1251108589
1168,303.80950927734375,202.6739959716797,193.40660095214844,25.787546157836914,,427005.12901827926
1169,60.842491149902344,110.80586242675781,220.8058624267578,25.787546157836914,,427005.1329256997
1170,0.0,15.714285850524902,197.03297424316406,25.787546157836914,,427005.1368331201
1171,195.42124938964844,53.18681335449219,132.96702575683594,25.787546157836914,,427005.14074054046
1172,438.3882751464844,170.43955993652344,166.41026306152344,25.787546157836914,,427005.14464796084
1173,170.8424835205078,120.07325744628906,148.27838134765625,25.787546157836914,,427005.1485553812
1174,0.0,14.102563858032227,84.61538696289062,25.787546157836914,,427005.1524628016
1175,116.84981536865234,27.399267196655273,109.19413757324219,25.787546157836914,,427005.156370222
1176,365.8608093261719,158.35165405273438,183.3333282470703,25.787546157836914,,427005.16027764237
1177,242.56410217285156,155.5311279296875,170.43955993652344,25.787546157836914,,427005.16418506275
1178,7.655677795410156,26.593406677246094,93.88278198242188,25.787546157836914,,427005.16809248313
1179,47.14285659790039,7.252747058868408,98.71794891357422,25.787546157836914,,427005.1719999035
1180,132.1611785888672,141.8314971923828,218.38827514648438,25.787546157836914,,427005.1759073239
1181,68.4981689453125,230.07325744628906,275.20147705078125,25.787546157836914,,427005.17981474433
1182,23.369962692260742,74.54212188720703,150.2930450439453,25.787546157836914,,427005.1837221647
1183,18.937728881835938,0.0,85.01831817626953,25.787546157836914,,427005.1876295851
1184,105.56776428222656,103.95604705810547,186.15383911132812,25.787546157836914,,427005.1915370055
1185,308.6446838378906,195.8241729736328,207.5091552734375,25.787546157836914,,427005.19544442586
1186,176.88644409179688,81.79486846923828,103.15018463134766,25.787546157836914,,427005.19935184624
1187,0.0,8.058608055114746,79.78022003173828,25.787546157836914,,427005.2032592666
1188,114.43223571777344,63.663002014160156,148.27838134765625,25.787546157836914,,427005.207166687
1189,419.4505615234375,175.6776580810547,179.3040313720703,25.787546157836914,,427005.2110741074
1190,260.69598388671875,116.44688415527344,123.69963073730469,25.787546157836914,,427005.21498152777
1191,0.0,12.087912559509277,90.25640869140625,25.787546157836914,,427005.21888894815
1192,25.787546157836914,41.098899841308594,160.76922607421875,25.787546157836914,,427005.2227963685
1193,328.79119873046875,162.38095092773438,197.43589782714844,25.787546157836914,,427005.22670378897
1194,339.26739501953125,150.2930450439453,132.96702575683594,25.787546157836914,,427005.23061120935
1195,33.0402946472168,25.787546157836914,98.71794891357422,25.787546157836914,,427005.23451862973
1196,0.0,24.578754425048828,193.003662109375,25.787546157836914,,427005.2384260501
1197,196.63003540039062,148.6813201904297,247.39926147460938,25.787546157836914,,427005.2423334705
1198,365.054931640625,182.93040466308594,162.38095092773438,25.787546157836914,,427005.2462408909
1199,114.43223571777344,57.619049072265625,127.72893524169922,25.787546157836914,,427005.25014831126
1200,0.0,8.864468574523926,155.12820434570312,25.787546157836914,,427005.25405573164
1201,212.34432983398438,74.54212188720703,154.72528076171875,25.787546157836914,,427005.257963152
1202,459.3406677246094,172.85714721679688,151.09890747070312,25.787546157836914,,427005.2618705724
1203,197.8388214111328,96.30036926269531,134.1758270263672,25.787546157836914,,427005.2657779928
1204,0.0,10.879120826721191,150.2930450439453,25.787546157836914,,427005.26968541316
1205,124.1025619506836,51.57509231567383,170.43955993652344,25.787546157836914,,427005.2735928336
1206,416.6300354003906,172.45420837402344,171.24542236328125,25.787546157836914,,427005.277500254
1207,232.89376831054688,144.65200805664062,174.06593322753906,25.787546157836914,,427005.28140767437
1208,0.0,26.996337890625,122.8937759399414,25.787546157836914,,427005.28531509475
1209,69.70696258544922,18.131868362426758,112.82051086425781,25.787546157836914,,427005.28922251513
1210,386.00732421875,124.1025619506836,150.2930450439453,25.787546157836914,,427005.2931299355
1211,296.959716796875,194.61538696289062,212.34432983398438,25.787546157836914,,427005.2970373559
1212,0.0,86.63003540039062,222.41758728027344,25.787546157836914,,427005.3009447763
1213,18.937728881835938,4.029304027557373,127.72893524169922,25.787546157836914,,427005.30485219666
1214,296.1538391113281,91.46520233154297,145.45787048339844,25.787546157836914,,427005.30875961704
1215,346.5201416015625,186.55677795410156,181.3186798095703,25.787546157836914,,427005.3126670374
1216,50.769229888916016,85.82417297363281,159.56044006347656,25.787546157836914,,427005.3165744578
1217,0.0,4.432234287261963,127.32600402832031,25.787546157836914,,427005.32048187824
1218,181.72161865234375,70.10989379882812,145.45787048339844,25.787546157836914,,427005.3243892986
1219,236.11721801757812,213.55311584472656,238.53480529785156,25.787546157836914,,427005.328296719
1220,73.73626708984375,128.53480529785156,177.2893829345703,25.787546157836914,,427005.3322041394
1221,18.131868362426758,4.432234287261963,71.72161102294922,25.787546157836914,,427005.33611155977
1222,58.021976470947266,47.9487190246582,137.8022003173828,25.787546157836914,,427005.34001898015
1223,362.6373596191406,168.42491149902344,193.003662109375,25.787546157836914,,427005.3439264005
1224,311.4652099609375,132.56410217285156,134.1758270263672,25.787546157836914,,427005.3478338209
1225,15.311355590820312,17.72893714904785,78.97435760498047,25.787546157836914,,427005.3517412413
1226,0.0,25.384614944458008,133.77288818359375,25.787546157836914,,427005.3556486617
1227,228.46153259277344,149.08424377441406,210.73260498046875,25.787546157836914,,427005.35955608205
1228,256.26373291015625,188.1685028076172,199.85348510742188,25.787546157836914,,427005.36346350244
1229,24.578754425048828,53.589744567871094,118.86447143554688,25.787546157836914,,427005.3673709229
1230,1.6117216348648071,12.087912559509277,141.8314971923828,25.787546157836914,,427005.37127834326
1231,95.8974380493164,143.44322204589844,271.5751037597656,25.787546157836914,,427005.37518576364
1232,325.1648254394531,200.25640869140625,201.46519470214844,25.787546157836914,,427005.379093184
1233,173.6630096435547,70.10989379882812,93.07691955566406,25.787546157836914,,427005.3830006044
1234,0.0,10.879120826721191,99.92674255371094,25.787546157836914,,427005.3869080248
1235,178.90109252929688,59.230770111083984,145.05494689941406,25.787546157836914,,427005.39081544516
1236,470.21978759765625,166.00732421875,153.91941833496094,25.787546157836914,,427005.39472286555
1237,238.53480529785156,108.79120635986328,121.28205108642578,25.787546157836914,,427005.3986302859
1238,0.0,12.893773078918457,104.76190185546875,25.787546157836914,,427005.4025377063
1239,99.52381134033203,31.831501007080078,132.1611785888672,25.787546157836914,,427005.4064451267
1240,306.22711181640625,169.23077392578125,203.07691955566406,25.787546157836914,,427005.4103525471
1241,200.6593475341797,170.8424835205078,184.13919067382812,25.787546157836914,,427005.41425996745
1242,6.4468865394592285,33.846153259277344,191.39193725585938,25.787546157836914,,427005.4181673879
1243,36.66666793823242,16.923076629638672,212.74725341796875,25.787546157836914,,427005.4220748083
1244,379.5604248046875,118.86447143554688,153.11355590820312,25.787546157836914,,427005.42598222865
1245,389.23077392578125,171.24542236328125,158.75457763671875,25.787546157836914,,427005.42988964904
1246,32.63736343383789,64.06593322753906,130.54945373535156,25.787546157836914,,427005.4337970694
1247,0.0,7.655677795410156,97.5091552734375,25.787546157836914,,427005.4377044898
1248,255.86080932617188,76.55677795410156,136.996337890625,25.787546157836914,,427005.4416119102
1249,390.8424987792969,183.3333282470703,179.3040313720703,25.787546157836914,,427005.44551933056
1250,90.65933990478516,99.92674255371094,140.62271118164062,25.787546157836914,,427005.44942675094
1251,0.0,6.849816799163818,90.65933990478516,25.787546157836914,,427005.4533341713
1252,103.95604705810547,62.4542121887207,153.5164794921875,25.787546157836914,,427005.4572415917
1253,190.989013671875,217.9853515625,252.23443603515625,25.787546157836914,,427005.4611490121
1254,53.18681335449219,167.2161102294922,228.86447143554688,25.787546157836914,,427005.4650564325
1255,4.432234287261963,15.311355590820312,100.32967376708984,25.787546157836914,,427005.4689638529
1256,81.3919448852539,23.77289390563965,110.0,25.787546157836914,,427005.4728712733
1257,305.018310546875,159.56044006347656,199.45054626464844,25.787546157836914,,427005.4767786937
1258,270.76922607421875,161.57508850097656,170.03663635253906,25.787546157836914,,427005.48068611405
1259,40.69597244262695,28.60805892944336,84.21245574951172,25.787546157836914,,427005.48459353443
