,TP9,AF7,AF8,TP10,Right AUX,lsl_time_stamp
0,650.3296508789062,148.27838134765625,178.90109252929688,74.94505310058594,,1543383735.7755818
1,174.4688720703125,189.78021240234375,139.010986328125,257.8754577636719,,1543383735.7794878
2,1050.03662109375,191.7948760986328,103.15018463134766,198.24176025390625,,1543383735.783394
3,0.0,158.35165405273438,149.89010620117188,42.30769348144531,,1543383735.7873
4,347.3260192871094,151.90475463867188,202.6739959716797,94.68864440917969,,1543383735.7912061
5,40.29304122924805,193.40660095214844,192.60073852539062,314.68865966796875,,1543383735.7951121
6,1303.076904296875,204.2857208251953,125.71428680419922,280.03662109375,,1543383735.7990184
7,40.69597244262695,164.7985382080078,126.52014923095703,60.43955993652344,,1543383735.8029244
8,0.0,160.36630249023438,212.34432983398438,111.20879364013672,,1543383735.8068304
9,1092.7471923828125,217.1794891357422,282.4542236328125,448.8644714355469,,1543383735.8107364
10,96.30036926269531,219.1941375732422,166.00732421875,375.5311279296875,,1543383735.8146427
11,566.1171875,176.08058166503906,104.35897064208984,89.85347747802734,,1543383735.8185487
12,0.0,159.96336364746094,197.43589782714844,79.37728881835938,,1543383735.8224547
13,720.03662109375,162.7838897705078,191.39193725585938,153.91941833496094,,1543383735.8263607
14,172.45420837402344,187.76556396484375,100.73259735107422,203.07691955566406,,1543383735.830267
15,990.0,189.78021240234375,99.12088012695312,149.89010620117188,,1543383735.834173
16,0.0,164.7985382080078,183.73626708984375,89.04762268066406,,1543383735.838079
17,601.1721801757812,169.23077392578125,236.92308044433594,209.5238037109375,,1543383735.841985
18,165.2014617919922,193.40660095214844,168.8278350830078,303.4065856933594,,1543383735.8458912
19,1076.6300048828125,190.58607482910156,94.68864440917969,178.4981689453125,,1543383735.8497972
20,0.0,195.42124938964844,218.7912139892578,232.4908447265625,,1543383735.8537033
21,271.1721496582031,174.4688720703125,271.1721496582031,243.77288818359375,,1543383735.8576093
22,1610.10986328125,163.99267578125,150.6959686279297,178.09524536132812,,1543383735.8615155
23,1406.22705078125,199.85348510742188,110.0,256.6666564941406,,1543383735.8654215
24,123.69963073730469,186.15383911132812,170.43955993652344,192.60073852539062,,1543383735.8693275
25,0.0,145.86080932617188,204.2857208251953,80.18315124511719,,1543383735.8732336
26,1008.937744140625,144.24908447265625,145.45787048339844,96.30036926269531,,1543383735.8771398
27,134.57875061035156,191.7948760986328,106.37362670898438,250.21978759765625,,1543383735.8810458
28,657.9853515625,202.27105712890625,171.24542236328125,273.5897521972656,,1543383735.8849518
29,0.0,163.58973693847656,233.2967071533203,163.99267578125,,1543383735.888858
30,679.7435913085938,153.11355590820312,207.5091552734375,176.88644409179688,,1543383735.892764
31,168.8278350830078,196.22711181640625,150.6959686279297,316.30035400390625,,1543383735.89667
32,1032.7105712890625,223.62637329101562,186.95970153808594,377.5457763671875,,1543383735.900576
33,0.0,162.7838897705078,193.40660095214844,113.62637329101562,,1543383735.9044824
34,545.970703125,137.8022003173828,166.00732421875,21.355310440063477,,1543383735.9083884
35,149.4871826171875,183.3333282470703,138.60806274414062,223.62637329101562,,1543383735.9122944
36,1135.054931640625,201.86813354492188,114.43223571777344,242.96702575683594,,1543383735.9162004
37,0.0,167.2161102294922,142.63735961914062,60.842491149902344,,1543383735.9201066
38,166.8131866455078,148.27838134765625,181.72161865234375,18.53479766845703,,1543383735.9240127
39,1477.5457763671875,182.5274658203125,170.43955993652344,196.63003540039062,,1543383735.9279187
40,1517.8388671875,213.55311584472656,122.8937759399414,279.23077392578125,,1543383735.9318247
41,242.56410217285156,202.6739959716797,168.42491149902344,203.4798583984375,,1543383735.935731
42,0.0,161.97802734375,201.86813354492188,70.9157485961914,,1543383735.939637
43,875.970703125,196.63003540039062,229.26739501953125,282.05126953125,,1543383735.943543
44,171.24542236328125,249.41392517089844,220.40292358398438,502.8571472167969,,1543383735.947449
45,810.6959838867188,195.018310546875,128.93772888183594,176.08058166503906,,1543383735.9513552
46,0.0,159.96336364746094,171.64834594726562,22.16117286682129,,1543383735.9552612
47,659.1941528320312,168.02197265625,199.85348510742188,122.4908447265625,,1543383735.9591672
48,171.64834594726562,189.78021240234375,118.46154022216797,216.77655029296875,,1543383735.9630733
49,1050.842529296875,190.989013671875,90.25640869140625,153.91941833496094,,1543383735.9669795
50,0.0,170.8424835205078,174.06593322753906,86.63003540039062,,1543383735.9708855
51,460.1465148925781,158.75457763671875,215.56776428222656,132.56410217285156,,1543383735.9747915
52,113.22344207763672,175.27471923828125,138.60806274414062,196.63003540039062,,1543383735.9786978
53,1204.761962890625,209.12088012695312,128.93772888183594,279.6336975097656,,1543383735.9826038
54,0.0,195.42124938964844,217.58241271972656,250.21978759765625,,1543383735.9865098
55,52.78388214111328,192.60073852539062,320.73260498046875,352.5641174316406,,1543383735.9904158
56,1290.5860595703125,180.91575622558594,235.7142791748047,327.9853515625,,1543383735.994322
57,2.8205127716064453,172.85714721679688,82.6007308959961,170.8424835205078,,1543383735.998228
58,411.3919372558594,174.06593322753906,140.62271118164062,156.73992919921875,,1543383736.002134
59,0.0,143.44322204589844,208.7179412841797,89.04762268066406,,1543383736.00604
60,796.5933837890625,134.981689453125,162.7838897705078,89.04762268066406,,1543383736.0099463
61,176.08058166503906,168.8278350830078,93.47985076904297,187.76556396484375,,1543383736.0138524
62,905.3846435546875,179.7069549560547,126.11721801757812,188.974365234375,,1543383736.0177584
63,0.0,145.86080932617188,191.39193725585938,79.78022003173828,,1543383736.0216644
64,650.7326049804688,133.77288818359375,181.3186798095703,77.76556396484375,,1543383736.0255706
65,174.87179565429688,179.7069549560547,144.65200805664062,265.9340515136719,,1543383736.0294766
66,1050.4395751953125,224.029296875,197.43589782714844,419.8534851074219,,1543383736.0333827
67,0.0,189.78021240234375,249.010986328125,270.76922607421875,,1543383736.0372887
68,371.9047546386719,132.96702575683594,184.54212951660156,39.08424758911133,,1543383736.041195
69,58.82783889770508,174.4688720703125,147.4725341796875,204.6886444091797,,1543383736.045101
70,1303.8828125,221.61172485351562,153.11355590820312,349.3406677246094,,1543383736.049007
71,35.4578742980957,182.93040466308594,166.00732421875,152.3076934814453,,1543383736.052913
72,0.0,142.63735961914062,172.05128479003906,0.0,,1543383736.0568192
73,1140.6959228515625,171.64834594726562,157.94871520996094,141.42857360839844,,1543383736.0607252
74,92.67399597167969,216.77655029296875,122.0879135131836,287.69232177734375,,1543383736.0646312
75,562.087890625,193.8095245361328,121.28205108642578,134.57875061035156,,1543383736.0685372
76,0.0,163.1868133544922,182.93040466308594,52.380950927734375,,1543383736.0724435
77,715.6043701171875,190.1831512451172,223.22344970703125,243.77288818359375,,1543383736.0763495
78,171.24542236328125,249.41392517089844,217.58241271972656,496.00732421875,,1543383736.0802555
79,991.6116943359375,223.22344970703125,164.7985382080078,304.21246337890625,,1543383736.0841618
80,0.0,163.99267578125,151.09890747070312,13.296703338623047,,1543383736.0880678
81,597.94873046875,170.43955993652344,192.1977996826172,105.56776428222656,,1543383736.0919738
82,163.99267578125,203.07691955566406,139.8168487548828,243.36996459960938,,1543383736.0958798
83,1075.82421875,203.88278198242188,84.61538696289062,171.24542236328125,,1543383736.099786
84,0.0,182.5274658203125,157.14285278320312,89.85347747802734,,1543383736.103692
85,242.96702575683594,190.1831512451172,258.6813049316406,233.2967071533203,,1543383736.107598
86,1581.5018310546875,199.45054626464844,198.64468383789062,305.8241882324219,,1543383736.111504
87,1411.4652099609375,199.45054626464844,86.63003540039062,192.1977996826172,,1543383736.1154103
88,124.1025619506836,183.73626708984375,126.92308044433594,91.06227111816406,,1543383736.1193163
89,0.0,174.4688720703125,230.87911987304688,155.12820434570312,,1543383736.1232224
90,990.4029541015625,183.3333282470703,209.92674255371094,251.8314971923828,,1543383736.1271284
91,149.08424377441406,193.8095245361328,95.8974380493164,214.76190185546875,,1543383736.1310346
92,696.2637329101562,184.13919067382812,105.97069549560547,112.82051086425781,,1543383736.1349406
93,0.0,177.6923065185547,233.6996307373047,176.4835205078125,,1543383736.1388466
94,678.1318969726562,170.8424835205078,230.07325744628906,227.25274658203125,,1543383736.1427526
95,171.24542236328125,176.08058166503906,98.31501770019531,180.10989379882812,,1543383736.146659
96,1036.7398681640625,192.60073852539062,107.5824203491211,182.93040466308594,,1543383736.150565
97,0.0,168.02197265625,194.2124481201172,122.0879135131836,,1543383736.154471
98,545.1648559570312,141.8314971923828,188.1685028076172,78.97435760498047,,1543383736.158377
99,149.4871826171875,174.87179565429688,135.7875518798828,212.34432983398438,,1543383736.1622832
100,1129.81689453125,208.7179412841797,136.1904754638672,296.959716796875,,1543383736.1661892
101,0.0,214.76190185546875,271.1721496582031,371.9047546386719,,1543383736.1700952
102,170.8424835205078,173.6630096435547,288.0952453613281,273.5897521972656,,1543383736.1740012
103,1482.3809814453125,150.2930450439453,139.8168487548828,132.1611785888672,,1543383736.1779075
104,1513.4066162109375,193.40660095214844,112.4175796508789,258.6813049316406,,1543383736.1818135
105,236.92308044433594,176.08058166503906,157.94871520996094,178.4981689453125,,1543383736.1857195
106,0.0,132.96702575683594,181.3186798095703,16.923076629638672,,1543383736.1896257
107,890.879150390625,145.45787048339844,154.72528076171875,86.63003540039062,,1543383736.1935318
108,173.6630096435547,192.60073852539062,116.44688415527344,263.5164794921875,,1543383736.1974378
109,809.4871826171875,188.57142639160156,139.010986328125,203.07691955566406,,1543383736.2013438
110,0.0,145.05494689941406,180.5128173828125,34.24908447265625,,1543383736.20525
111,659.1941528320312,142.23443603515625,175.6776580810547,76.15384674072266,,1543383736.209156
112,171.64834594726562,186.55677795410156,130.95237731933594,251.42857360839844,,1543383736.213062
113,1050.842529296875,209.92674255371094,153.91941833496094,310.6593322753906,,1543383736.216968
114,0.0,182.5274658203125,224.029296875,211.53846740722656,,1543383736.2208743
115,463.3699645996094,151.90475463867188,209.12088012695312,117.65567779541016,,1543383736.2247803
116,115.23809814453125,203.88278198242188,201.86813354492188,359.8168640136719,,1543383736.2286863
117,1213.223388671875,240.95237731933594,209.5238037109375,481.5018310546875,,1543383736.2325923
118,0.0,170.8424835205078,156.73992919921875,109.19413757324219,,1543383736.2364986
119,43.11355209350586,149.4871826171875,184.13919067382812,33.846153259277344,,1543383736.2404046
120,1279.3040771484375,182.5274658203125,172.05128479003906,205.09156799316406,,1543383736.2443106
121,1.6117216348648071,201.86813354492188,94.28571319580078,228.05860900878906,,1543383736.2482166
122,408.1684875488281,182.93040466308594,110.0,91.06227111816406,,1543383736.2521229
123,0.0,166.00732421875,193.40660095214844,66.0805892944336,,1543383736.256029
124,795.3846435546875,180.5128173828125,197.43589782714844,193.8095245361328,,1543383736.259935
125,175.27471923828125,213.15017700195312,135.38461303710938,303.003662109375,,1543383736.263841
126,904.1758422851562,200.25640869140625,117.25274658203125,173.26007080078125,,1543383736.2677472
127,0.0,180.5128173828125,196.22711181640625,113.22344207763672,,1543383736.2716532
128,649.5238037109375,197.43589782714844,265.1282043457031,293.3333435058594,,1543383736.2755592
129,174.06593322753906,205.89743041992188,161.97802734375,303.003662109375,,1543383736.2794654
130,1050.842529296875,212.74725341796875,120.87911987304688,243.77288818359375,,1543383736.2833714
131,0.0,200.6593475341797,217.58241271972656,219.59707641601562,,1543383736.2872775
132,375.1282043457031,185.75091552734375,260.29302978515625,238.93772888183594,,1543383736.2911835
133,61.64834976196289,178.09524536132812,141.42857360839844,183.3333282470703,,1543383736.2950897
134,1300.2564697265625,200.25640869140625,83.80952453613281,186.55677795410156,,1543383736.2989957
135,37.875457763671875,186.95970153808594,154.72528076171875,132.96702575683594,,1543383736.3029017
136,0.0,159.1575164794922,203.07691955566406,78.97435760498047,,1543383736.3068078
137,1125.3846435546875,182.93040466308594,194.2124481201172,238.13186645507812,,1543383736.310714
138,89.85347747802734,205.4945068359375,127.32600402832031,290.9157409667969,,1543383736.31462
139,552.8204956054688,211.94139099121094,188.57142639160156,294.1391906738281,,1543383736.318526
140,0.0,184.13919067382812,267.5457763671875,246.996337890625,,1543383736.322432
141,722.8571166992188,144.65200805664062,163.99267578125,88.24176025390625,,1543383736.3263383
142,172.05128479003906,183.73626708984375,97.1062240600586,205.4945068359375,,1543383736.3302443
143,983.9560546875,195.42124938964844,124.5054931640625,215.56776428222656,,1543383736.3341503
144,0.0,157.54579162597656,178.09524536132812,72.52747344970703,,1543383736.3380563
145,610.03662109375,148.27838134765625,190.989013671875,95.8974380493164,,1543383736.3419626
146,168.02197265625,186.55677795410156,145.86080932617188,255.05494689941406,,1543383736.3458686
147,1075.018310546875,211.53846740722656,146.26373291015625,306.6300354003906,,1543383736.3497746
148,0.0,168.02197265625,177.6923065185547,120.47618865966797,,1543383736.3536806
149,265.5311279296875,151.5018310546875,214.35897827148438,118.86447143554688,,1543383736.3575869
150,1604.06591796875,193.40660095214844,207.10623168945312,323.5531005859375,,1543383736.3614929
151,1408.24169921875,226.44688415527344,183.73626708984375,417.4358825683594,,1543383736.365399
152,122.4908447265625,176.4835205078125,166.8131866455078,171.64834594726562,,1543383736.369305
153,0.0,133.36996459960938,168.8278350830078,0.0,,1543383736.3732111
154,1009.3406372070312,162.7838897705078,174.87179565429688,147.4725341796875,,1543383736.3771172
155,149.89010620117188,194.61538696289062,118.86447143554688,260.29302978515625,,1543383736.3810232
156,695.8607788085938,174.06593322753906,109.19413757324219,117.65567779541016,,1543383736.3849294
157,0.0,143.04029846191406,168.02197265625,12.893773078918457,,1543383736.3888354
158,675.7142944335938,152.3076934814453,185.75091552734375,110.80586242675781,,1543383736.3927414
159,169.23077392578125,186.95970153808594,126.52014923095703,245.7875518798828,,1543383736.3966475
160,1035.128173828125,196.63003540039062,126.52014923095703,228.86447143554688,,1543383736.4005537
161,0.0,170.8424835205078,205.89743041992188,146.26373291015625,,1543383736.4044597
162,521.7948608398438,182.93040466308594,278.02197265625,295.75091552734375,,1543383736.4083657
163,139.010986328125,217.9853515625,242.56410217285156,462.5641174316406,,1543383736.4122717
164,1136.2637939453125,193.8095245361328,116.84981536865234,234.90843200683594,,1543383736.416178
165,0.0,163.99267578125,140.21978759765625,52.78388214111328,,1543383736.420084
166,171.64834594726562,153.5164794921875,204.2857208251953,80.5860824584961,,1543383736.42399
167,1479.157470703125,165.60440063476562,149.89010620117188,164.7985382080078,,1543383736.427896
168,1524.6885986328125,188.57142639160156,78.97435760498047,176.88644409179688,,1543383736.4318023
169,249.010986328125,182.93040466308594,136.1904754638672,124.9084243774414,,1543383736.4357083
170,0.0,162.7838897705078,216.77655029296875,111.61172485351562,,1543383736.4396143
171,895.7142944335938,159.56044006347656,173.26007080078125,136.1904754638672,,1543383736.4435203
172,171.24542236328125,189.37728881835938,93.47985076904297,196.22711181640625,,1543383736.4474266
173,794.1758422851562,212.74725341796875,158.35165405273438,259.8901062011719,,1543383736.4513326
174,0.0,200.25640869140625,279.23077392578125,287.28936767578125,,1543383736.4552386
175,660.4029541015625,174.4688720703125,244.981689453125,241.35531616210938,,1543383736.4591446
176,170.43955993652344,180.91575622558594,113.22344207763672,206.3003692626953,,1543383736.4630508
177,1051.245361328125,208.7179412841797,127.72893524169922,255.45787048339844,,1543383736.4669569
178,0.0,188.1685028076172,220.40292358398438,204.6886444091797,,1543383736.4708629
179,460.952392578125,145.45787048339844,188.974365234375,62.85714340209961,,1543383736.4747689
180,113.62637329101562,170.8424835205078,120.07325744628906,155.12820434570312,,1543383736.4786751
181,1203.9560546875,204.2857208251953,110.4029312133789,240.54945373535156,,1543383736.4825811
182,0.0,180.91575622558594,164.7985382080078,132.1611785888672,,1543383736.4864872
183,61.64834976196289,146.26373291015625,184.13919067382812,22.96703338623047,,1543383736.4903934
184,1317.9853515625,171.24542236328125,156.73992919921875,157.94871520996094,,1543383736.4942994
185,1616.959716796875,240.14651489257812,185.75091552734375,446.0439453125,,1543383736.4982054
186,361.4285583496094,228.46153259277344,235.7142791748047,381.97802734375,,1543383736.5021114
187,0.0,154.3223419189453,195.42124938964844,55.20146560668945,,1543383736.5060177
188,800.6226806640625,158.35165405273438,160.36630249023438,101.94139099121094,,1543383736.5099237
189,175.6776580810547,201.06227111816406,114.83516693115234,255.86080932617188,,1543383736.5138297
190,904.5787353515625,203.88278198242188,135.7875518798828,221.2087860107422,,1543383736.5177357
191,0.0,165.60440063476562,195.8241729736328,96.70330047607422,,1543383736.521642
192,650.7326049804688,155.5311279296875,185.75091552734375,97.9120864868164,,1543383736.525548
193,174.4688720703125,202.6739959716797,155.5311279296875,303.80950927734375,,1543383736.529454
194,1050.4395751953125,202.6739959716797,123.69963073730469,242.96702575683594,,1543383736.53336
195,0.0,158.35165405273438,146.6666717529297,35.86080551147461,,1543383736.5372663
196,365.4578857421875,151.09890747070312,195.42124938964844,68.9011001586914,,1543383736.5411723
197,53.589744567871094,193.8095245361328,188.974365234375,291.3186950683594,,1543383736.5450783
198,1302.6739501953125,206.3003692626953,134.57875061035156,300.989013671875,,1543383736.5489843
199,39.08424758911133,162.7838897705078,131.35531616210938,70.9157485961914,,1543383736.5528905
200,0.0,156.3369903564453,215.970703125,120.07325744628906,,1543383736.5567966
201,1115.3114013671875,194.2124481201172,246.1904754638672,363.8461608886719,,1543383736.5607026
202,95.4945068359375,194.61538696289062,123.29669952392578,275.6044006347656,,1543383736.5646086
203,565.3113403320312,169.23077392578125,107.17948913574219,98.71794891357422,,1543383736.5685148
204,0.0,148.27838134765625,194.2124481201172,80.18315124511719,,1543383736.5724208
205,722.05126953125,159.56044006347656,206.3003692626953,200.25640869140625,,1543383736.5763268
206,173.6630096435547,189.78021240234375,133.77288818359375,284.0659484863281,,1543383736.580233
207,992.0146484375,177.2893829345703,97.9120864868164,146.26373291015625,,1543383736.584139
208,0.0,163.58973693847656,201.46519470214844,139.41392517089844,,1543383736.5880451
209,607.6190185546875,173.26007080078125,265.9340515136719,282.05126953125,,1543383736.5919511
210,168.42491149902344,185.75091552734375,164.7985382080078,292.9303894042969,,1543383736.5958574
211,1076.22705078125,183.3333282470703,89.04762268066406,166.00732421875,,1543383736.5997634
212,0.0,189.37728881835938,213.55311584472656,224.8351593017578,,1543383736.6036694
213,285.27471923828125,173.26007080078125,271.1721496582031,254.24908447265625,,1543383736.6075754
214,1624.6153564453125,155.93406677246094,133.77288818359375,143.44322204589844,,1543383736.6114817
215,1402.6007080078125,190.58607482910156,88.24176025390625,206.3003692626953,,1543383736.6153877
216,122.0879135131836,185.75091552734375,162.38095092773438,176.08058166503906,,1543383736.6192937
217,0.0,148.27838134765625,199.04762268066406,68.9011001586914,,1543383736.6231997
218,1012.1611938476562,153.91941833496094,146.6666717529297,103.95604705810547,,1543383736.627106
219,141.8314971923828,199.45054626464844,103.55311584472656,242.1611785888672,,1543383736.631012
220,677.7289428710938,205.4945068359375,158.35165405273438,242.1611785888672,,1543383736.634918
221,0.0,179.3040313720703,238.53480529785156,184.13919067382812,,1543383736.638824
222,678.5347900390625,168.02197265625,213.15017700195312,188.1685028076172,,1543383736.6427302
223,170.03663635253906,199.45054626464844,133.77288818359375,274.79852294921875,,1543383736.6466362
224,1030.2930908203125,248.60806274414062,217.1794891357422,462.5641174316406,,1543383736.6505423
225,0.0,193.003662109375,242.56410217285156,234.90843200683594,,1543383736.6544483
226,551.2088012695312,141.8314971923828,165.60440063476562,22.96703338623047,,1543383736.6583545
227,151.09890747070312,188.974365234375,135.7875518798828,224.43223571777344,,1543383736.6622605
228,1133.4432373046875,207.5091552734375,110.80586242675781,243.36996459960938,,1543383736.6661665
229,0.0,169.23077392578125,136.1904754638672,60.43955993652344,,1543383736.6700726
230,174.06593322753906,148.6813201904297,177.6923065185547,17.326007843017578,,1543383736.6739788
231,1485.201416015625,176.88644409179688,155.12820434570312,170.03663635253906,,1543383736.6778848
232,1521.062255859375,206.3003692626953,103.55311584472656,245.38461303710938,,1543383736.6817908
233,246.59339904785156,197.43589782714844,161.1721649169922,192.60073852539062,,1543383736.685697
234,0.0,156.73992919921875,198.24176025390625,70.10989379882812,,1543383736.689603
235,886.8497924804688,191.39193725585938,224.43223571777344,278.02197265625,,1543383736.693509
236,172.85714721679688,244.1758270263672,217.58241271972656,502.4542236328125,,1543383736.697415
237,808.2783813476562,188.974365234375,124.1025619506836,164.7985382080078,,1543383736.7013214
238,0.0,159.96336364746094,181.72161865234375,63.260074615478516,,1543383736.7052274
239,659.1941528320312,169.63369750976562,218.7912139892578,197.43589782714844,,1543383736.7091334
240,171.64834594726562,184.54212951660156,119.26740264892578,223.22344970703125,,1543383736.7130394
241,1050.842529296875,183.73626708984375,83.80952453613281,143.04029846191406,,1543383736.7169456
242,0.0,161.57508850097656,164.7985382080078,72.93040466308594,,1543383736.7208517
243,466.996337890625,152.7106170654297,206.7032928466797,116.04395294189453,,1543383736.7247577
244,116.44688415527344,172.45420837402344,134.1758270263672,192.60073852539062,,1543383736.7286637
245,1207.9853515625,201.86813354492188,118.05860900878906,263.5164794921875,,1543383736.73257
246,0.0,192.1977996826172,206.3003692626953,240.95237731933594,,1543383736.736476
247,74.94505310058594,175.6776580810547,277.6190490722656,262.71063232421875,,1543383736.740382
248,1326.4468994140625,165.60440063476562,184.94505310058594,220.8058624267578,,1543383736.744288
249,1643.150146484375,179.3040313720703,76.15384674072266,170.43955993652344,,1543383736.7481942
250,401.3186950683594,185.75091552734375,144.24908447265625,174.87179565429688,,1543383736.7521002
251,0.0,158.75457763671875,217.58241271972656,122.4908447265625,,1543383736.7560062
252,803.8461303710938,147.87545776367188,164.7985382080078,106.37362670898438,,1543383736.7599123
253,177.2893829345703,177.2893829345703,86.22710418701172,177.6923065185547,,1543383736.7638185
254,902.967041015625,202.6739959716797,150.6959686279297,255.45787048339844,,1543383736.7677245
255,0.0,172.85714721679688,229.26739501953125,175.27471923828125,,1543383736.7716305
256,650.7326049804688,143.04029846191406,181.3186798095703,79.78022003173828,,1543383736.7755365
257,174.87179565429688,191.7948760986328,143.04029846191406,265.9340515136719,,1543383736.7794428
258,1050.842529296875,234.5054931640625,197.03297424316406,424.28570556640625,,1543383736.7833488
259,0.0,197.03297424316406,248.60806274414062,273.99267578125,,1543383736.7872548
260,387.21612548828125,140.21978759765625,188.57142639160156,50.769229888916016,,1543383736.791161
261,70.9157485961914,167.2161102294922,128.13186645507812,161.1721649169922,,1543383736.795067
262,1299.047607421875,201.86813354492188,108.79120635986328,246.996337890625,,1543383736.798973
263,31.0256404876709,175.27471923828125,146.6666717529297,111.20879364013672,,1543383736.802879
264,0.0,140.21978759765625,174.06593322753906,3.2234432697296143,,1543383736.8067853
265,1158.827880859375,168.8278350830078,164.39559936523438,165.60440063476562,,1543383736.8106914
266,91.46520233154297,213.95603942871094,135.7875518798828,327.5824279785156,,1543383736.8145974
267,562.4908447265625,186.15383911132812,129.74359130859375,155.5311279296875,,1543383736.8185034
268,0.0,148.6813201904297,170.8424835205078,15.311355590820312,,1543383736.8224096
269,716.8131713867188,175.6776580810547,209.12088012695312,209.92674255371094,,1543383736.8263156
270,172.45420837402344,239.74359130859375,221.61172485351562,506.8864440917969,,1543383736.8302217
271,991.6116943359375,214.76190185546875,172.05128479003906,309.4505615234375,,1543383736.8341277
272,0.0,153.5164794921875,155.5311279296875,11.684981346130371,,1543383736.838034
273,609.2307739257812,159.96336364746094,193.8095245361328,108.38827514648438,,1543383736.84194
274,168.8278350830078,193.40660095214844,145.05494689941406,250.62271118164062,,1543383736.845846
275,1073.4066162109375,197.8388214111328,95.8974380493164,190.1831512451172,,1543383736.849752
276,0.0,168.02197265625,145.45787048339844,55.20146560668945,,1543383736.8536582
277,284.4688720703125,155.93406677246094,203.88278198242188,90.65933990478516,,1543383736.8575642
278,1623.8095703125,179.3040313720703,163.58973693847656,216.77655029296875,,1543383736.8614702
279,1400.989013671875,196.63003540039062,93.88278198242188,212.74725341796875,,1543383736.8653762
280,126.52014923095703,174.4688720703125,126.11721801757812,83.80952453613281,,1543383736.8692825
281,0.0,185.75091552734375,263.5164794921875,230.87911987304688,,1543383736.8731885
282,982.7472534179688,204.6886444091797,269.96337890625,392.8571472167969,,1543383736.8770945
283,149.08424377441406,188.57142639160156,106.77655792236328,229.6703338623047,,1543383736.8810008
284,695.8607788085938,180.10989379882812,109.5970687866211,122.8937759399414,,1543383736.8849068
285,0.0,168.8278350830078,223.62637329101562,149.4871826171875,,1543383736.8888128
286,680.5494384765625,159.96336364746094,211.53846740722656,180.10989379882812,,1543383736.8927188
287,171.64834594726562,176.88644409179688,101.13552856445312,187.76556396484375,,1543383736.896625
288,1034.7252197265625,192.1977996826172,111.20879364013672,191.7948760986328,,1543383736.900531
289,0.0,168.02197265625,196.63003540039062,123.69963073730469,,1543383736.904437
290,547.9853515625,147.06959533691406,201.06227111816406,97.5091552734375,,1543383736.908343
291,150.2930450439453,167.61904907226562,122.0879135131836,170.8424835205078,,1543383736.9122493
292,1124.981689453125,201.46519470214844,121.28205108642578,261.9047546386719,,1543383736.9161553
293,0.0,197.43589782714844,226.44688415527344,263.1135559082031,,1543383736.9200613
294,176.4835205078125,153.91941833496094,228.46153259277344,133.77288818359375,,1543383736.9239674
295,1494.06591796875,158.75457763671875,143.44322204589844,148.6813201904297,,1543383736.9278736
296,1494.06591796875,214.35897827148438,137.8022003173828,325.970703125,,1543383736.9317796
297,213.95603942871094,234.5054931640625,261.9047546386719,429.1208801269531,,1543383736.9356856
298,0.0,175.27471923828125,261.5018310546875,208.3150177001953,,1543383736.9395916
299,901.3552856445312,151.5018310546875,154.3223419189453,97.5091552734375,,1543383736.943498
300,173.6630096435547,201.86813354492188,118.05860900878906,268.3516540527344,,1543383736.947404
301,801.025634765625,197.03297424316406,134.57875061035156,198.64468383789062,,1543383736.95131
302,0.0,151.90475463867188,170.8424835205078,24.175825119018555,,1543383736.955216
303,659.5970458984375,149.89010620117188,166.8131866455078,55.20146560668945,,1543383736.9591222
304,171.24542236328125,192.1977996826172,124.1025619506836,236.92308044433594,,1543383736.9630282
305,1050.842529296875,217.9853515625,157.54579162597656,318.71795654296875,,1543383736.9669342
306,0.0,180.91575622558594,209.5238037109375,168.42491149902344,,1543383736.9708402
307,466.996337890625,143.84616088867188,177.2893829345703,39.487178802490234,,1543383736.9747465
308,116.84981536865234,207.5091552734375,193.003662109375,338.4615478515625,,1543383736.9786525
309,1209.194091796875,234.5054931640625,182.93040466308594,410.5860900878906,,1543383736.9825585
310,0.0,167.61904907226562,140.62271118164062,70.5128173828125,,1543383736.9864647
311,62.4542121887207,160.76922607421875,212.34432983398438,114.43223571777344,,1543383736.9903708
312,1311.5384521484375,190.1831512451172,211.53846740722656,298.974365234375,,1543383736.9942768
313,1637.5091552734375,201.86813354492188,112.82051086425781,254.65200805664062,,1543383736.9981828
314,391.24542236328125,178.09524536132812,110.4029312133789,86.63003540039062,,1543383737.002089
315,0.0,159.56044006347656,194.61538696289062,62.0512809753418,,1543383737.005995
316,801.4285888671875,174.06593322753906,199.45054626464844,182.5274658203125,,1543383737.009901
317,174.4688720703125,208.3150177001953,140.21978759765625,308.6446838378906,,1543383737.013807
318,892.893798828125,205.09156799316406,146.6666717529297,242.56410217285156,,1543383737.0177133
319,0.0,174.06593322753906,213.15017700195312,142.63735961914062,,1543383737.0216193
320,652.3442993164062,182.93040466308594,263.9194030761719,288.9010925292969,,1543383737.0255253
321,174.06593322753906,187.36264038085938,148.6813201904297,272.3809509277344,,1543383737.0294313
322,1050.842529296875,184.13919067382812,80.989013671875,141.8314971923828,,1543383737.0333376
323,0.0,168.42491149902344,172.85714721679688,103.95604705810547,,1543383737.0372436
324,386.8132019042969,150.6959686279297,203.88278198242188,101.13552856445312,,1543383737.0411496
325,71.31867980957031,169.23077392578125,130.54945373535156,164.39559936523438,,1543383737.0450556
326,1291.3919677734375,199.04762268066406,102.74725341796875,231.2820587158203,,1543383737.0489619
327,33.0402946472168,191.7948760986328,189.37728881835938,215.970703125,,1543383737.052868
328,0.0,162.38095092773438,235.7142791748047,154.3223419189453,,1543383737.056774
329,1136.2637939453125,174.06593322753906,195.018310546875,235.7142791748047,,1543383737.06068
330,83.003662109375,201.46519470214844,124.1025619506836,286.0805969238281,,1543383737.0645862
331,541.94140625,208.3150177001953,184.54212951660156,281.24542236328125,,1543383737.0684922
332,0.0,184.54212951660156,265.9340515136719,238.93772888183594,,1543383737.0723982
333,727.2893676757812,147.87545776367188,165.2014617919922,85.82417297363281,,1543383737.0763042
334,172.45420837402344,185.34799194335938,96.70330047607422,196.63003540039062,,1543383737.0802104
335,975.4945068359375,200.25640869140625,125.31135559082031,213.55311584472656,,1543383737.0841165
336,0.0,160.76922607421875,177.6923065185547,64.87179565429688,,1543383737.0880225
337,616.08056640625,143.04029846191406,169.23077392578125,31.0256404876709,,1543383737.0919287
338,169.23077392578125,185.75091552734375,130.14651489257812,205.89743041992188,,1543383737.0958347
339,1070.989013671875,208.3150177001953,127.72893524169922,261.9047546386719,,1543383737.0997407
340,0.0,169.23077392578125,162.38095092773438,86.22710418701172,,1543383737.1036468
341,277.21612548828125,156.73992919921875,213.55311584472656,109.19413757324219,,1543383737.107553
342,1620.5860595703125,193.8095245361328,200.6593475341797,308.6446838378906,,1543383737.111459
343,1376.4102783203125,248.60806274414062,218.7912139892578,514.5421142578125,,1543383737.115365
344,96.70330047607422,206.7032928466797,220.8058624267578,303.003662109375,,1543383737.119271
345,0.0,140.62271118164062,172.85714721679688,0.0,,1543383737.1231773
346,1013.3699340820312,174.87179565429688,181.72161865234375,188.1685028076172,,1543383737.1270833
347,146.26373291015625,211.94139099121094,130.95237731933594,307.032958984375,,1543383737.1309893
348,682.5640869140625,184.54212951660156,107.17948913574219,119.67032623291016,,1543383737.1348953
349,0.0,151.5018310546875,165.60440063476562,8.461538314819336,,1543383737.1388016
350,678.937744140625,166.00732421875,191.7948760986328,123.69963073730469,,1543383737.1427076
351,169.23077392578125,197.8388214111328,130.54945373535156,251.8314971923828,,1543383737.1466136
352,1034.7252197265625,195.42124938964844,105.97069549560547,173.26007080078125,,1543383737.1505196
353,0.0,176.08058166503906,197.43589782714844,125.31135559082031,,1543383737.1544259
354,523.4066162109375,189.78021240234375,285.6776428222656,308.6446838378906,,1543383737.1583319
355,139.41392517089844,212.34432983398438,220.8058624267578,406.5567626953125,,1543383737.162238
356,1131.83154296875,197.03297424316406,116.44688415527344,234.90843200683594,,1543383737.166144
357,0.0,165.60440063476562,152.3076934814453,85.4212417602539,,1543383737.1700501
358,180.10989379882812,157.14285278320312,221.61172485351562,132.96702575683594,,1543383737.1739562
359,1492.4542236328125,172.85714721679688,174.4688720703125,226.04396057128906,,1543383737.1778622
360,1511.794921875,184.54212951660156,80.18315124511719,182.12454223632812,,1543383737.1817684
361,234.90843200683594,176.88644409179688,132.56410217285156,120.87911987304688,,1543383737.1856744
362,0.0,155.5311279296875,211.53846740722656,104.35897064208984,,1543383737.1895804
363,902.1611938476562,152.7106170654297,170.8424835205078,135.38461303710938,,1543383737.1934865
364,168.02197265625,181.3186798095703,91.06227111816406,195.018310546875,,1543383737.1973927
365,780.4761962890625,204.2857208251953,158.35165405273438,258.6813049316406,,1543383737.2012987
366,0.0,191.7948760986328,281.24542236328125,285.6776428222656,,1543383737.2052047
367,661.6116943359375,156.3369903564453,220.0,176.88644409179688,,1543383737.2091107
368,169.63369750976562,172.45420837402344,99.92674255371094,169.23077392578125,,1543383737.213017
369,1051.245361328125,200.25640869140625,123.29669952392578,230.4761962890625,,1543383737.216923
370,0.0,167.2161102294922,189.78021240234375,115.23809814453125,,1543383737.220829
371,462.5641174316406,149.4871826171875,207.91209411621094,107.17948913574219,,1543383737.224735
372,115.23809814453125,177.6923065185547,153.11355590820312,233.6996307373047,,1543383737.2286413
373,1184.6153564453125,211.53846740722656,139.8168487548828,309.8534851074219,,1543383737.2325473
374,0.0,193.40660095214844,204.2857208251953,225.64102172851562,,1543383737.2364533
375,74.13919067382812,143.44322204589844,193.8095245361328,52.78388214111328,,1543383737.2403593
376,1333.6995849609375,159.1575164794922,141.025634765625,127.32600402832031,,1543383737.2442656
377,1602.05126953125,228.05860900878906,167.2161102294922,396.0805969238281,,1543383737.2481716
378,343.69964599609375,220.0,226.84982299804688,351.75823974609375,,1543383737.2520776
379,0.0,145.05494689941406,187.76556396484375,37.06959533691406,,1543383737.2559836
380,800.2197875976562,153.5164794921875,160.76922607421875,106.37362670898438,,1543383737.2598898
381,174.06593322753906,201.46519470214844,121.28205108642578,267.5457763671875,,1543383737.2637959
382,895.7142944335938,195.018310546875,120.87911987304688,183.3333282470703,,1543383737.2677019
383,0.0,155.12820434570312,164.7985382080078,26.996337890625,,1543383737.2716079
384,651.94140625,157.14285278320312,182.93040466308594,101.13552856445312,,1543383737.2755141
385,174.06593322753906,194.61538696289062,137.39926147460938,260.69598388671875,,1543383737.2794201
386,1050.4395751953125,212.74725341796875,132.1611785888672,266.3370056152344,,1543383737.2833261
387,0.0,181.3186798095703,189.37728881835938,141.42857360839844,,1543383737.2872324
388,367.4725341796875,157.54579162597656,198.24176025390625,87.03296661376953,,1543383737.2911384
389,55.60439682006836,227.25274658203125,248.2051239013672,454.1025695800781,,1543383737.2950444
390,1294.21240234375,239.3406524658203,199.85348510742188,454.9084167480469,,1543383737.2989504
391,29.010988235473633,170.8424835205078,134.57875061035156,70.10989379882812,,1543383737.3028567
392,0.0,158.75457763671875,204.2857208251953,76.95970916748047,,1543383737.3067627
393,1147.5457763671875,177.6923065185547,182.93040466308594,205.09156799316406,,1543383737.3106687
394,81.79486846923828,191.39193725585938,89.85347747802734,207.91209411621094,,1543383737.3145747
395,539.5238037109375,178.4981689453125,112.4175796508789,110.4029312133789,,1543383737.318481
396,0.0,159.96336364746094,202.6739959716797,94.28571319580078,,1543383737.322387
397,724.8717651367188,160.76922607421875,193.8095245361328,168.02197265625,,1543383737.326293
398,172.05128479003906,182.93040466308594,101.94139099121094,210.73260498046875,,1543383737.330199
399,980.3296508789062,184.54212951660156,100.32967376708984,155.12820434570312,,1543383737.3341053
400,0.0,163.99267578125,193.40660095214844,110.0,,1543383737.3380113
401,607.6190185546875,166.00732421875,239.3406524658203,211.13552856445312,,1543383737.3419173
402,166.8131866455078,200.6593475341797,186.55677795410156,352.1611633300781,,1543383737.3458233
403,1071.794921875,200.25640869140625,128.93772888183594,263.9194030761719,,1543383737.3497295
404,0.0,190.989013671875,224.029296875,239.3406524658203,,1543383737.3536355
405,282.05126953125,191.7948760986328,312.6739807128906,346.1172180175781,,1543383737.3575416
406,1621.794921875,166.8131866455078,166.41026306152344,209.5238037109375,,1543383737.3614476
407,1394.945068359375,188.1685028076172,86.22710418701172,190.58607482910156,,1543383737.3653538
408,114.02930450439453,184.94505310058594,161.97802734375,166.41026306152344,,1543383737.3692598
409,0.0,146.6666717529297,198.24176025390625,58.42490768432617,,1543383737.3731658
410,1021.4285888671875,149.89010620117188,147.87545776367188,100.73259735107422,,1543383737.3770719
411,130.95237731933594,192.60073852539062,104.35897064208984,240.14651489257812,,1543383737.380978
412,649.120849609375,195.018310546875,145.86080932617188,203.4798583984375,,1543383737.384884
413,0.0,171.24542236328125,226.44688415527344,151.09890747070312,,1543383737.3887901
414,681.3552856445312,162.7838897705078,208.3150177001953,174.87179565429688,,1543383737.3926964
415,168.02197265625,197.43589782714844,135.38461303710938,271.97802734375,,1543383737.3966024
416,1023.4432373046875,233.6996307373047,198.24176025390625,399.30401611328125,,1543383737.4005084
417,0.0,175.6776580810547,215.56776428222656,153.5164794921875,,1543383737.4044144
418,551.6116943359375,137.39926147460938,160.76922607421875,0.8058608174324036,,1543383737.4083207
419,150.2930450439453,193.003662109375,154.3223419189453,264.3223571777344,,1543383737.4122267
420,1124.17578125,221.2087860107422,153.5164794921875,338.05859375,,1543383737.4161327
421,0.0,168.02197265625,149.08424377441406,73.73626708984375,,1543383737.4200387
422,180.5128173828125,144.24908447265625,178.09524536132812,10.073260307312012,,1543383737.423945
423,1496.886474609375,176.08058166503906,160.76922607421875,174.87179565429688,,1543383737.427851
424,1500.10986328125,206.3003692626953,112.0146484375,250.62271118164062,,1543383737.431757
425,222.8205108642578,198.24176025390625,164.7985382080078,190.1831512451172,,1543383737.435663
426,0.0,165.2014617919922,218.7912139892578,118.46154022216797,,1543383737.4395692
427,893.6996459960938,191.39193725585938,236.5201416015625,301.3919372558594,,1543383737.4434752
428,170.43955993652344,228.46153259277344,186.95970153808594,423.0769348144531,,1543383737.4473813
429,792.1611938476562,184.94505310058594,112.82051086425781,140.62271118164062,,1543383737.4512873
430,0.0,153.91941833496094,166.41026306152344,15.311355590820312,,1543383737.4551935
431,660.8058471679688,174.4688720703125,214.76190185546875,167.2161102294922,,1543383737.4590995
432,170.8424835205078,206.7032928466797,157.54579162597656,308.24176025390625,,1543383737.4630055
433,1050.842529296875,192.60073852539062,95.4945068359375,160.36630249023438,,1543383737.4669116
434,0.0,170.03663635253906,165.60440063476562,66.48351287841797,,1543383737.4708178
435,473.4432373046875,171.24542236328125,232.4908447265625,174.4688720703125,,1543383737.4747238
436,119.67032623291016,184.13919067382812,153.91941833496094,232.08790588378906,,1543383737.4786298
437,1193.076904296875,208.3150177001953,121.28205108642578,261.5018310546875,,1543383737.482536
438,0.0,201.46519470214844,208.7179412841797,240.95237731933594,,1543383737.486442
439,83.003662109375,184.54212951660156,276.4102478027344,257.8754577636719,,1543383737.490348
440,1340.146484375,174.4688720703125,186.15383911132812,228.05860900878906,,1543383737.494254
441,1627.8388671875,187.76556396484375,77.76556396484375,174.06593322753906,,1543383737.4981604
442,379.5604248046875,188.1685028076172,139.010986328125,155.93406677246094,,1543383737.5020664
443,0.0,156.3369903564453,203.4798583984375,91.06227111816406,,1543383737.5059724
444,807.87548828125,150.2930450439453,161.1721649169922,100.73259735107422,,1543383737.5098784
445,175.6776580810547,182.93040466308594,89.04762268066406,181.3186798095703,,1543383737.5137846
446,890.0732421875,201.86813354492188,143.44322204589844,234.5054931640625,,1543383737.5176907
447,0.0,171.24542236328125,223.62637329101562,164.39559936523438,,1543383737.5215967
448,652.3442993164062,145.45787048339844,184.94505310058594,92.67399597167969,,1543383737.5255027
449,174.06593322753906,185.34799194335938,134.57875061035156,242.96702575683594,,1543383737.529409
450,1050.842529296875,230.07325744628906,186.95970153808594,401.72161865234375,,1543383737.533315
451,0.0,209.92674255371094,276.00732421875,343.29669189453125,,1543383737.537221
452,391.24542236328125,145.86080932617188,210.3296661376953,95.8974380493164,,1543383737.541127
453,74.13919067382812,163.99267578125,122.8937759399414,141.8314971923828,,1543383737.5450332
454,1290.5860595703125,199.85348510742188,110.80586242675781,242.96702575683594,,1543383737.5489392
455,25.787546157836914,171.24542236328125,149.08424377441406,113.22344207763672,,1543383737.5528452
456,0.0,137.8022003173828,173.26007080078125,0.0,,1543383737.5567513
457,1170.5128173828125,161.1721649169922,153.5164794921875,125.71428680419922,,1543383737.5606575
458,78.57142639160156,205.09156799316406,124.5054931640625,288.4981689453125,,1543383737.5645635
459,537.106201171875,182.12454223632812,129.74359130859375,147.06959533691406,,1543383737.5684695
460,0.0,144.24908447265625,172.85714721679688,12.490842819213867,,1543383737.5723755
461,722.8571166992188,169.23077392578125,204.2857208251953,180.10989379882812,,1543383737.5762818
462,171.64834594726562,240.54945373535156,232.08790588378906,521.3919677734375,,1543383737.5801878
463,981.94140625,219.59707641601562,199.04762268066406,375.9340515136719,,1543383737.5840938
464,0.0,144.65200805664062,157.54579162597656,16.923076629638672,,1543383737.588
465,612.05126953125,151.09890747070312,192.60073852539062,97.1062240600586,,1543383737.591906
466,168.42491149902344,187.36264038085938,145.05494689941406,242.1611785888672,,1543383737.595812
467,1070.989013671875,188.1685028076172,91.06227111816406,173.6630096435547,,1543383737.599718
468,0.0,157.94871520996094,141.8314971923828,42.71062088012695,,1543383737.6036243
469,288.4981689453125,151.09890747070312,203.07691955566406,83.80952453613281,,1543383737.6075304
470,1628.6446533203125,176.08058166503906,163.1868133544922,209.5238037109375,,1543383737.6114364
471,1392.12451171875,192.60073852539062,93.07691955566406,197.03297424316406,,1543383737.6153424
472,110.4029312133789,176.4835205078125,135.38461303710938,97.1062240600586,,1543383737.6192486
473,0.0,170.03663635253906,235.7142791748047,159.96336364746094,,1543383737.6231546
474,1028.2784423828125,176.88644409179688,203.07691955566406,232.08790588378906,,1543383737.6270607
475,139.41392517089844,191.39193725585938,94.68864440917969,209.5238037109375,,1543383737.6309667
476,669.2673950195312,186.95970153808594,114.43223571777344,133.36996459960938,,1543383737.634873
477,0.0,196.22711181640625,266.3370056152344,262.71063232421875,,1543383737.638779
478,676.5201416015625,204.2857208251953,297.76556396484375,389.6336975097656,,1543383737.642685
479,169.23077392578125,188.1685028076172,125.31135559082031,233.6996307373047,,1543383737.646591
480,1033.113525390625,195.8241729736328,101.94139099121094,172.45420837402344,,1543383737.6504972
481,0.0,176.88644409179688,191.7948760986328,124.9084243774414,,1543383737.6544032
482,554.029296875,153.91941833496094,189.37728881835938,95.0915756225586,,1543383737.6583092
483,152.3076934814453,176.4835205078125,112.82051086425781,169.23077392578125,,1543383737.6622152
484,1122.1611328125,207.5091552734375,104.76190185546875,223.62637329101562,,1543383737.6661215
485,0.0,198.64468383789062,203.4798583984375,215.1648406982422,,1543383737.6700275
486,184.13919067382812,164.7985382080078,222.8205108642578,137.39926147460938,,1543383737.6739335
487,1506.15380859375,166.41026306152344,132.96702575683594,131.75823974609375,,1543383737.6778398
488,1482.3809814453125,213.95603942871094,115.23809814453125,282.8571472167969,,1543383737.6817458
489,201.06227111816406,221.2087860107422,217.58241271972656,332.4175720214844,,1543383737.6856518
490,0.0,161.57508850097656,220.40292358398438,118.86447143554688,,1543383737.6895578
491,907.8021850585938,155.12820434570312,149.08424377441406,95.4945068359375,,1543383737.693464
492,172.05128479003906,222.0146484375,153.11355590820312,356.996337890625,,1543383737.69737
493,793.7728881835938,216.37362670898438,180.91575622558594,308.6446838378906,,1543383737.701276
494,0.0,151.09890747070312,174.87179565429688,34.652015686035156,,1543383737.705182
495,660.4029541015625,149.89010620117188,165.2014617919922,68.0952377319336,,1543383737.7090883
496,171.24542236328125,193.40660095214844,128.53480529785156,249.41392517089844,,1543383737.7129943
497,1050.4395751953125,213.55311584472656,155.12820434570312,306.22711181640625,,1543383737.7169003
498,0.0,169.63369750976562,191.7948760986328,126.92308044433594,,1543383737.7208064
499,477.0696105957031,136.59339904785156,168.42491149902344,22.564102172851562,,1543383737.7247126
500,121.28205108642578,199.85348510742188,192.1977996826172,339.6703186035156,,1543383737.7286186
501,1204.761962890625,225.23809814453125,187.36264038085938,421.8681335449219,,1543383737.7325246
502,0.0,160.36630249023438,145.86080932617188,81.79486846923828,,1543383737.7364306
503,70.9157485961914,140.21978759765625,186.15383911132812,35.4578742980957,,1543383737.740337
504,1325.6409912109375,169.23077392578125,174.4688720703125,196.22711181640625,,1543383737.744243
505,1629.4505615234375,190.989013671875,104.35897064208984,232.08790588378906,,1543383737.748149
506,383.5897521972656,170.8424835205078,119.26740264892578,103.55311584472656,,1543383737.752055
507,0.0,160.36630249023438,218.38827514648438,129.74359130859375,,1543383737.7559612
508,788.937744140625,177.6923065185547,236.92308044433594,286.0805969238281,,1543383737.7598672
509,170.43955993652344,201.86813354492188,159.1575164794922,348.1318664550781,,1543383737.7637732
510,885.6410522460938,192.60073852539062,148.27838134765625,241.75823974609375,,1543383737.7676792
511,0.0,165.60440063476562,207.91209411621094,135.38461303710938,,1543383737.7715855
512,651.94140625,188.57142639160156,278.4248962402344,331.20880126953125,,1543383737.7754915
513,172.85714721679688,193.8095245361328,172.45420837402344,326.3736267089844,,1543383737.7793975
514,1051.6483154296875,179.7069549560547,80.18315124511719,135.7875518798828,,1543383737.7833037
515,0.0,168.42491149902344,170.43955993652344,103.95604705810547,,1543383737.7872097
516,391.6483459472656,153.11355590820312,207.10623168945312,115.23809814453125,,1543383737.7911158
517,74.13919067382812,166.8131866455078,128.53480529785156,159.1575164794922,,1543383737.7950218
518,1290.5860595703125,192.1977996826172,84.61538696289062,185.34799194335938,,1543383737.798928
519,30.21977996826172,180.10989379882812,151.5018310546875,126.11721801757812,,1543383737.802834
520,0.0,157.14285278320312,205.09156799316406,89.04762268066406,,1543383737.80674
521,1154.3956298828125,180.5128173828125,191.39193725585938,228.86447143554688,,1543383737.810646
522,71.72161102294922,214.35897827148438,141.8314971923828,323.1501770019531,,1543383737.8145523
523,522.6007080078125,226.04396057128906,207.5091552734375,344.9084167480469,,1543383737.8184583
524,0.0,205.4945068359375,293.73626708984375,316.30035400390625,,1543383737.8223643
525,732.12451171875,163.1868133544922,185.34799194335938,139.41392517089844,,1543383737.8262703
526,171.64834594726562,193.8095245361328,93.47985076904297,190.58607482910156,,1543383737.8301766
527,967.4359130859375,209.12088012695312,124.1025619506836,210.73260498046875,,1543383737.8340826
528,0.0,168.8278350830078,172.85714721679688,62.0512809753418,,1543383737.8379886
529,617.6923217773438,151.90475463867188,163.99267578125,26.996337890625,,1543383737.8418946
530,168.8278350830078,192.1977996826172,121.68498229980469,198.24176025390625,,1543383737.8458009
531,1069.7802734375,216.77655029296875,122.8937759399414,259.4871826171875,,1543383737.849707
532,0.0,179.7069549560547,161.97802734375,89.85347747802734,,1543383737.853613
533,282.8571472167969,168.02197265625,214.35897827148438,123.29669952392578,,1543383737.857519
534,1623.4066162109375,204.6886444091797,205.09156799316406,325.970703125,,1543383737.8614252
535,1391.7215576171875,236.5201416015625,184.94505310058594,423.8827819824219,,1543383737.8653312
536,108.38827514648438,190.58607482910156,175.6776580810547,188.57142639160156,,1543383737.8692372
537,0.0,151.09890747070312,188.1685028076172,43.91941452026367,,1543383737.8731432
538,1029.084228515625,182.93040466308594,204.2857208251953,250.62271118164062,,1543383737.8770494
539,141.8314971923828,212.74725341796875,148.6813201904297,350.952392578125,,1543383737.8809555
540,673.2966918945312,176.88644409179688,113.22344207763672,130.14651489257812,,1543383737.8848615
541,0.0,141.8314971923828,161.97802734375,4.432234287261963,,1543383737.8887677
542,680.952392578125,155.12820434570312,186.15383911132812,114.43223571777344,,1543383737.8926737
543,169.63369750976562,184.94505310058594,124.1025619506836,233.6996307373047,,1543383737.8965797
544,1033.113525390625,180.5128173828125,101.53845977783203,162.38095092773438,,1543383737.9004858
545,0.0,161.97802734375,190.989013671875,114.83516693115234,,1543383737.904392
546,532.2710571289062,180.10989379882812,281.6483459472656,305.4212341308594,,1543383737.908298
547,143.04029846191406,199.85348510742188,221.2087860107422,406.959716796875,,1543383737.912204
548,1127.3992919921875,176.4835205078125,99.92674255371094,190.989013671875,,1543383737.91611
549,0.0,152.7106170654297,140.62271118164062,55.60439682006836,,1543383737.9200163
550,191.7948760986328,140.62271118164062,203.07691955566406,84.21245574951172,,1543383737.9239223
551,1506.959716796875,156.73992919921875,152.7106170654297,172.45420837402344,,1543383737.9278283
552,1506.5567626953125,188.57142639160156,104.35897064208984,234.90843200683594,,1543383737.9317343
553,229.6703338623047,178.09524536132812,152.3076934814453,159.96336364746094,,1543383737.9356406
554,0.0,157.94871520996094,228.46153259277344,139.41392517089844,,1543383737.9395466
555,913.8461303710938,155.5311279296875,187.36264038085938,171.24542236328125,,1543383737.9434526
556,167.61904907226562,178.09524536132812,89.45054626464844,190.58607482910156,,1543383737.9473586
557,773.2234497070312,203.4798583984375,159.56044006347656,260.29302978515625,,1543383737.9512649
558,0.0,176.08058166503906,238.93772888183594,188.974365234375,,1543383737.9551709
559,662.0146484375,148.27838134765625,182.93040466308594,104.35897064208984,,1543383737.959077
560,170.03663635253906,174.4688720703125,95.0915756225586,165.60440063476562,,1543383737.962983
561,1050.842529296875,208.7179412841797,128.53480529785156,251.025634765625,,1543383737.9668891
562,0.0,201.06227111816406,251.025634765625,280.8424987792969,,1543383737.9707952
563,475.8608093261719,153.11355590820312,215.1648406982422,127.32600402832031,,1543383737.9747012
564,121.28205108642578,166.41026306152344,114.02930450439453,141.42857360839844,,1543383737.9786074
565,1181.3919677734375,207.91209411621094,119.67032623291016,269.96337890625,,1543383737.9825134
566,0.0,182.93040466308594,173.26007080078125,153.11355590820312,,1543383737.9864194
567,70.9157485961914,156.3369903564453,207.5091552734375,93.88278198242188,,1543383737.9903255
568,1328.864501953125,176.4835205078125,175.27471923828125,216.77655029296875,,1543383737.9942317
569,1603.6629638671875,228.46153259277344,164.39559936523438,392.4542236328125,,1543383737.9981377
570,343.29669189453125,232.89376831054688,247.39926147460938,408.974365234375,,1543383738.0020437
571,0.0,157.54579162597656,213.55311584472656,101.53845977783203,,1543383738.0059497
572,809.89013671875,152.3076934814453,153.91941833496094,92.27106475830078,,1543383738.009856
573,175.27471923828125,198.24176025390625,113.62637329101562,249.010986328125,,1543383738.013762
574,889.6703491210938,192.1977996826172,115.23809814453125,170.43955993652344,,1543383738.017668
575,0.0,150.6959686279297,157.54579162597656,14.505494117736816,,1543383738.021574
576,652.3442993164062,153.11355590820312,175.27471923828125,67.69230651855469,,1543383738.0254803
577,173.6630096435547,197.8388214111328,139.41392517089844,246.996337890625,,1543383738.0293863
578,1050.842529296875,199.85348510742188,110.0,206.3003692626953,,1543383738.0332923
579,0.0,160.76922607421875,148.6813201904297,37.875457763671875,,1543383738.0371983
580,378.3516540527344,154.3223419189453,196.63003540039062,74.13919067382812,,1543383738.0411046
581,64.87179565429688,196.63003540039062,188.57142639160156,295.3479919433594,,1543383738.0450106
582,1281.3187255859375,219.59707641601562,149.4871826171875,330.0,,1543383738.0489166
583,28.60805892944336,190.1831512451172,181.72161865234375,184.54212951660156,,1543383738.0528226
584,0.0,163.1868133544922,224.43223571777344,135.38461303710938,,1543383738.0567288
585,1126.5933837890625,213.55311584472656,274.3955993652344,436.77655029296875,,1543383738.0606349
586,78.16849517822266,222.41758728027344,186.55677795410156,424.68865966796875,,1543383738.0645409
587,531.4652099609375,168.02197265625,107.17948913574219,89.04762268066406,,1543383738.0684469
588,0.0,158.75457763671875,201.46519470214844,91.86813354492188,,1543383738.0723531
589,729.3040161132812,163.58973693847656,200.6593475341797,179.7069549560547,,1543383738.0762591
590,172.85714721679688,180.10989379882812,97.9120864868164,195.42124938964844,,1543383738.0801651
591,981.1355590820312,182.93040466308594,97.5091552734375,140.21978759765625,,1543383738.0840714
592,0.0,160.36630249023438,185.75091552734375,85.4212417602539,,1543383738.0879774
593,612.05126953125,167.61904907226562,235.3113555908203,205.4945068359375,,1543383738.0918834
594,168.42491149902344,189.78021240234375,162.38095092773438,293.73626708984375,,1543383738.0957894
595,1070.989013671875,182.93040466308594,88.24176025390625,165.60440063476562,,1543383738.0996957
596,0.0,186.15383911132812,206.3003692626953,207.91209411621094,,1543383738.1036017
597,285.6776428222656,185.34799194335938,293.3333435058594,311.8681335449219,,1543383738.1075077
598,1625.4212646484375,174.06593322753906,174.87179565429688,235.3113555908203,,1543383738.1114137
599,1393.7362060546875,189.37728881835938,92.27106475830078,201.86813354492188,,1543383738.11532
600,112.0146484375,186.95970153808594,168.42491149902344,184.54212951660156,,1543383738.119226
601,0.0,152.7106170654297,210.73260498046875,100.73259735107422,,1543383738.123132
602,1031.90478515625,150.6959686279297,145.86080932617188,102.34432220458984,,1543383738.127038
603,130.14651489257812,194.2124481201172,102.34432220458984,232.89376831054688,,1543383738.1309443
604,647.106201171875,193.8095245361328,142.63735961914062,199.85348510742188,,1543383738.1348503
605,0.0,168.8278350830078,223.62637329101562,148.27838134765625,,1543383738.1387563
606,682.967041015625,162.7838897705078,206.7032928466797,175.6776580810547,,1543383738.1426623
607,169.23077392578125,199.04762268066406,132.96702575683594,272.3809509277344,,1543383738.1465685
608,1025.86083984375,228.46153259277344,188.1685028076172,376.73992919921875,,1543383738.1504745
609,0.0,169.63369750976562,203.4798583984375,130.95237731933594,,1543383738.1543806
610,556.4468994140625,140.62271118164062,167.2161102294922,18.53479766845703,,1543383738.1582866
611,152.3076934814453,184.13919067382812,136.1904754638672,217.58241271972656,,1543383738.1621928
612,1117.3260498046875,213.95603942871094,136.1904754638672,300.989013671875,,1543383738.1660988
613,0.0,180.10989379882812,176.08058166503906,143.04029846191406,,1543383738.1700048
614,186.15383911132812,142.23443603515625,175.27471923828125,23.77289390563965,,1543383738.1739109
615,1499.7069091796875,184.94505310058594,176.4835205078125,245.38461303710938,,1543383738.177817
616,1505.3480224609375,221.2087860107422,153.91941833496094,363.4432373046875,,1543383738.181723
617,226.84982299804688,193.003662109375,170.8424835205078,211.53846740722656,,1543383738.1856291
618,0.0,160.76922607421875,215.56776428222656,116.44688415527344,,1543383738.1895354
619,904.981689453125,190.58607482910156,236.92308044433594,307.8388366699219,,1543383738.1934414
620,171.24542236328125,230.87911987304688,199.45054626464844,456.1172180175781,,1543383738.1973474
621,794.1758422851562,182.12454223632812,117.65567779541016,155.12820434570312,,1543383738.2012534
622,0.0,150.2930450439453,163.1868133544922,16.117216110229492,,1543383738.2051597
623,660.4029541015625,159.96336364746094,191.39193725585938,109.5970687866211,,1543383738.2090657
624,170.43955993652344,185.34799194335938,117.65567779541016,208.7179412841797,,1543383738.2129717
625,1050.842529296875,187.76556396484375,89.85347747802734,150.2930450439453,,1543383738.2168777
626,0.0,162.7838897705078,161.1721649169922,60.03662872314453,,1543383738.220784
627,462.5641174316406,164.39559936523438,224.029296875,161.97802734375,,1543383738.22469
628,114.43223571777344,188.57142639160156,169.63369750976562,271.97802734375,,1543383738.228596
629,1196.7032470703125,207.10623168945312,130.54945373535156,281.6483459472656,,1543383738.232502
630,0.0,193.40660095214844,198.24176025390625,213.95603942871094,,1543383738.2364082
631,55.60439682006836,198.24176025390625,307.8388366699219,336.8498229980469,,1543383738.2403142
632,1303.4798583984375,198.24176025390625,242.56410217285156,361.4285583496094,,1543383738.2442203
633,1630.6593017578125,185.34799194335938,80.18315124511719,174.06593322753906,,1543383738.2481263
634,375.9340515136719,186.15383911132812,133.36996459960938,146.6666717529297,,1543383738.2520325
635,0.0,158.75457763671875,203.4798583984375,91.06227111816406,,1543383738.2559385
636,811.098876953125,150.6959686279297,158.35165405273438,95.0915756225586,,1543383738.2598445
637,176.4835205078125,185.34799194335938,90.25640869140625,190.58607482910156,,1543383738.2637506
638,892.087890625,195.018310546875,123.29669952392578,193.40660095214844,,1543383738.2676568
639,0.0,161.1721649169922,187.36264038085938,83.003662109375,,1543383738.2715628
640,651.94140625,149.08424377441406,173.6630096435547,71.72161102294922,,1543383738.2754688
641,174.4688720703125,192.60073852539062,140.21978759765625,264.72528076171875,,1543383738.279375
642,1050.842529296875,235.3113555908203,195.8241729736328,422.27105712890625,,1543383738.283281
643,0.0,210.3296661376953,278.4248962402344,352.5641174316406,,1543383738.287187
644,394.4688720703125,146.26373291015625,208.7179412841797,107.17948913574219,,1543383738.291093
645,76.15384674072266,163.99267578125,117.65567779541016,142.23443603515625,,1543383738.2949994
646,1289.3773193359375,203.07691955566406,104.76190185546875,240.14651489257812,,1543383738.2989054
647,24.981685638427734,177.2893829345703,145.45787048339844,113.22344207763672,,1543383738.3028114
648,0.0,141.025634765625,171.24542236328125,0.0,,1543383738.3067174
649,1172.5274658203125,162.38095092773438,149.89010620117188,120.47618865966797,,1543383738.3106236
650,79.37728881835938,202.27105712890625,114.43223571777344,270.76922607421875,,1543383738.3145297
651,539.9267578125,181.72161865234375,126.11721801757812,143.04029846191406,,1543383738.3184357
652,0.0,145.45787048339844,171.64834594726562,9.267398834228516,,1543383738.3223417
653,720.8424682617188,170.43955993652344,205.09156799316406,185.34799194335938,,1543383738.326248
654,171.64834594726562,227.25274658203125,203.4798583984375,450.4761962890625,,1543383738.330154
655,984.7619018554688,203.07691955566406,155.12820434570312,266.73992919921875,,1543383738.33406
656,0.0,149.89010620117188,155.93406677246094,8.058608055114746,,1543383738.337966
657,612.4542236328125,159.1575164794922,199.04762268066406,112.82051086425781,,1543383738.3418722
658,168.8278350830078,198.64468383789062,167.61904907226562,300.5860900878906,,1543383738.3457782
659,1069.3773193359375,196.22711181640625,108.79120635986328,215.970703125,,1543383738.3496842
660,0.0,158.35165405273438,136.59339904785156,30.622711181640625,,1543383738.3535903
661,255.05494689941406,164.7985382080078,224.43223571777344,140.62271118164062,,1543383738.3574965
662,1594.798583984375,197.43589782714844,205.4945068359375,311.8681335449219,,1543383738.3614025
663,1399.3773193359375,194.2124481201172,99.52381134033203,211.13552856445312,,1543383738.3653085
664,117.25274658203125,169.63369750976562,121.28205108642578,68.4981689453125,,1543383738.3692145
665,0.0,183.73626708984375,258.27838134765625,222.8205108642578,,1543383738.3731208
666,990.4029541015625,203.4798583984375,261.5018310546875,378.3516540527344,,1543383738.3770268
667,143.84616088867188,191.39193725585938,105.16483306884766,225.64102172851562,,1543383738.3809328
668,680.5494384765625,183.3333282470703,110.4029312133789,123.69963073730469,,1543383738.384839
669,0.0,159.1575164794922,191.39193725585938,76.55677795410156,,1543383738.388745
670,681.3552856445312,161.57508850097656,197.43589782714844,157.94871520996094,,1543383738.392651
671,170.8424835205078,188.1685028076172,115.64102935791016,229.26739501953125,,1543383738.396557
672,1031.90478515625,197.8388214111328,104.35897064208984,180.5128173828125,,1543383738.4004633
673,0.0,180.5128173828125,200.6593475341797,143.04029846191406,,1543383738.4043694
674,554.8351440429688,157.14285278320312,205.09156799316406,118.05860900878906,,1543383738.4082754
675,152.7106170654297,175.27471923828125,121.28205108642578,173.6630096435547,,1543383738.4121814
676,1123.77294921875,201.06227111816406,97.5091552734375,201.86813354492188,,1543383738.4160876
677,0.0,223.62637329101562,258.27838134765625,351.3553161621094,,1543383738.4199936
678,183.73626708984375,191.7948760986328,298.1684875488281,307.4358825683594,,1543383738.4238997
679,1503.3333740234375,159.96336364746094,139.010986328125,134.57875061035156,,1543383738.4278057
680,1490.03662109375,200.6593475341797,106.77655792236328,253.04029846191406,,1543383738.431712
681,209.5238037109375,187.76556396484375,159.1575164794922,185.34799194335938,,1543383738.435618
682,0.0,145.05494689941406,185.75091552734375,37.875457763671875,,1543383738.439524
683,909.4139404296875,152.3076934814453,157.54579162597656,108.79120635986328,,1543383738.44343
684,172.05128479003906,196.22711181640625,118.05860900878906,265.9340515136719,,1543383738.4473362
685,790.5494384765625,193.40660095214844,140.21978759765625,210.3296661376953,,1543383738.4512422
686,0.0,148.27838134765625,178.09524536132812,41.5018310546875,,1543383738.4551482
687,660.8058471679688,143.44322204589844,176.4835205078125,85.4212417602539,,1543383738.4590542
688,170.8424835205078,197.8388214111328,160.36630249023438,316.30035400390625,,1543383738.4629605
689,1050.842529296875,217.1794891357422,178.4981689453125,353.77288818359375,,1543383738.4668665
690,0.0,174.06593322753906,217.58241271972656,182.93040466308594,,1543383738.4707725
691,473.8461608886719,138.2051239013672,191.39193725585938,72.52747344970703,,1543383738.4746785
692,120.07325744628906,196.63003540039062,192.60073852539062,334.029296875,,1543383738.4785848
693,1203.5531005859375,238.53480529785156,217.1794891357422,487.94873046875,,1543383738.4824908
694,0.0,164.7985382080078,165.2014617919922,120.47618865966797,,1543383738.4863968
695,70.5128173828125,135.38461303710938,178.4981689453125,11.282051086425781,,1543383738.490303
696,1326.4468994140625,167.2161102294922,167.61904907226562,177.6923065185547,,1543383738.494209
697,1624.21240234375,191.39193725585938,101.94139099121094,231.2820587158203,,1543383738.498115
698,373.5164794921875,172.05128479003906,116.84981536865234,97.1062240600586,,1543383738.502021
699,0.0,149.89010620117188,190.989013671875,53.18681335449219,,1543383738.5059273
700,804.6520385742188,166.41026306152344,194.61538696289062,176.08058166503906,,1543383738.5098333
701,173.26007080078125,207.5091552734375,150.2930450439453,332.0146484375,,1543383738.5137393
702,882.8204956054688,198.64468383789062,149.89010620117188,243.36996459960938,,1543383738.5176454
703,0.0,163.58973693847656,199.04762268066406,105.16483306884766,,1543383738.5215516
704,651.1355590820312,199.45054626464844,296.5567626953125,377.1428527832031,,1543383738.5254576
705,172.85714721679688,210.3296661376953,203.07691955566406,401.3186950683594,,1543383738.5293636
706,1051.6483154296875,182.93040466308594,86.63003540039062,148.27838134765625,,1543383738.5332696
707,0.0,172.05128479003906,172.45420837402344,107.17948913574219,,1543383738.537176
708,392.8571472167969,154.3223419189453,207.5091552734375,114.83516693115234,,1543383738.541082
709,75.75091552734375,163.99267578125,124.9084243774414,153.5164794921875,,1543383738.544988
710,1286.5567626953125,192.60073852539062,83.003662109375,187.36264038085938,,1543383738.548894
711,31.0256404876709,182.93040466308594,151.90475463867188,132.56410217285156,,1543383738.5528002
712,0.0,159.56044006347656,205.89743041992188,95.8974380493164,,1543383738.5567062
713,1138.6812744140625,184.13919067382812,193.003662109375,239.3406524658203,,1543383738.5606122
714,81.3919448852539,204.2857208251953,110.80586242675781,249.010986328125,,1543383738.5645182
715,537.5091552734375,215.1648406982422,175.6776580810547,263.5164794921875,,1543383738.5684245
716,0.0,197.03297424316406,273.5897521972656,264.72528076171875,,1543383738.5723305
717,729.3040161132812,155.12820434570312,168.02197265625,98.71794891357422,,1543383738.5762365
718,172.05128479003906,200.6593475341797,115.23809814453125,249.010986328125,,1543383738.5801427
719,969.047607421875,223.22344970703125,168.8278350830078,317.5091552734375,,1543383738.5840487
720,0.0,171.24542236328125,197.03297424316406,112.82051086425781,,1543383738.5879548
721,617.6923217773438,146.6666717529297,164.7985382080078,42.71062088012695,,1543383738.5918608
722,168.8278350830078,188.1685028076172,123.69963073730469,215.56776428222656,,1543383738.595767
723,1070.18310546875,211.13552856445312,120.87911987304688,253.04029846191406,,1543383738.599673
724,0.0,180.10989379882812,176.4835205078125,123.69963073730469,,1543383738.603579
725,278.02197265625,169.23077392578125,234.5054931640625,164.39559936523438,,1543383738.607485
726,1620.5860595703125,196.63003540039062,201.46519470214844,307.4358825683594,,1543383738.6113913
727,1380.4395751953125,240.54945373535156,204.2857208251953,466.19049072265625,,1543383738.6152973
728,99.12088012695312,196.22711181640625,203.88278198242188,252.23443603515625,,1543383738.6192033
729,0.0,135.7875518798828,170.43955993652344,0.0,,1543383738.6231093
730,1027.87548828125,163.58973693847656,169.63369750976562,147.4725341796875,,1543383738.6270156
731,143.84616088867188,197.43589782714844,118.05860900878906,271.5751037597656,,1543383738.6309216
732,676.923095703125,174.4688720703125,107.5824203491211,114.83516693115234,,1543383738.6348276
733,0.0,148.6813201904297,180.5128173828125,47.5457878112793,,1543383738.6387336
734,680.5494384765625,177.2893829345703,242.1611785888672,268.3516540527344,,1543383738.6426399
735,169.23077392578125,201.86813354492188,168.42491149902344,347.72894287109375,,1543383738.646546
736,1033.5164794921875,182.93040466308594,105.16483306884766,165.2014617919922,,1543383738.650452
737,0.0,167.2161102294922,193.003662109375,117.65567779541016,,1543383738.654358
738,527.8388061523438,184.54212951660156,280.8424987792969,298.974365234375,,1543383738.6582642
739,141.025634765625,207.5091552734375,218.7912139892578,394.8717956542969,,1543383738.6621702
740,1131.83154296875,186.55677795410156,99.52381134033203,188.57142639160156,,1543383738.6660762
741,0.0,160.36630249023438,139.010986328125,50.769229888916016,,1543383738.6699822
742,184.54212951660156,150.2930450439453,203.07691955566406,72.93040466308594,,1543383738.6738884
743,1498.901123046875,164.39559936523438,154.72528076171875,171.24542236328125,,1543383738.6777945
744,1507.765625,182.12454223632812,82.6007308959961,184.13919067382812,,1543383738.6817005
745,231.2820587158203,173.6630096435547,130.54945373535156,108.38827514648438,,1543383738.6856067
746,0.0,154.3223419189453,207.5091552734375,97.9120864868164,,1543383738.6895127
747,904.981689453125,154.72528076171875,167.61904907226562,136.996337890625,,1543383738.6934187
748,167.61904907226562,193.003662109375,111.61172485351562,244.1758270263672,,1543383738.6973248
749,776.8497924804688,205.09156799316406,161.57508850097656,266.3370056152344,,1543383738.701231
750,0.0,206.7032928466797,299.78021240234375,345.31134033203125,,1543383738.705137
751,662.0146484375,186.15383911132812,273.5897521972656,313.0769348144531,,1543383738.709043
752,170.03663635253906,174.87179565429688,101.94139099121094,175.27471923828125,,1543383738.712949
753,1050.842529296875,203.88278198242188,116.84981536865234,220.40292358398438,,1543383738.7168553
754,0.0,178.4981689453125,190.989013671875,127.32600402832031,,1543383738.7207613
755,474.24908447265625,147.4725341796875,179.7069549560547,46.336997985839844,,1543383738.7246673
756,120.47618865966797,173.26007080078125,117.65567779541016,151.90475463867188,,1543383738.7285733
757,1186.22705078125,206.3003692626953,108.79120635986328,244.981689453125,,1543383738.7324796
758,0.0,182.5274658203125,166.00732421875,144.65200805664062,,1543383738.7363856
759,75.34798431396484,147.87545776367188,185.34799194335938,42.30769348144531,,1543383738.7402916
760,1338.937744140625,162.7838897705078,135.7875518798828,122.4908447265625,,1543383738.7441976
761,1599.230712890625,232.08790588378906,164.39559936523438,394.4688720703125,,1543383738.7481039
762,340.8791198730469,226.04396057128906,226.04396057128906,358.20513916015625,,1543383738.7520099
763,0.0,164.39559936523438,213.55311584472656,105.16483306884766,,1543383738.7559159
764,794.5787353515625,174.4688720703125,193.40660095214844,182.5274658203125,,1543383738.759822
765,172.85714721679688,213.95603942871094,146.26373291015625,319.1208801269531,,1543383738.7637281
766,896.923095703125,206.3003692626953,145.45787048339844,236.92308044433594,,1543383738.7676342
767,0.0,155.93406677246094,164.7985382080078,20.952381134033203,,1543383738.7715402
768,651.94140625,155.5311279296875,178.09524536132812,70.5128173828125,,1543383738.7754462
769,174.06593322753906,194.61538696289062,136.59339904785156,249.010986328125,,1543383738.7793524
770,1050.4395751953125,197.8388214111328,108.38827514648438,207.91209411621094,,1543383738.7832584
771,0.0,160.36630249023438,147.87545776367188,40.69597244262695,,1543383738.7871644
772,377.1428527832031,151.09890747070312,193.40660095214844,70.9157485961914,,1543383738.7910707
773,63.663002014160156,192.60073852539062,185.34799194335938,289.70697021484375,,1543383738.7949767
774,1286.959716796875,215.1648406982422,152.3076934814453,338.8644714355469,,1543383738.7988827
775,33.846153259277344,170.8424835205078,149.4871826171875,111.20879364013672,,1543383738.8027887
776,0.0,157.14285278320312,209.12088012695312,100.73259735107422,,1543383738.806695
777,1118.5347900390625,195.018310546875,240.14651489257812,350.5494384765625,,1543383738.810601
778,76.55677795410156,208.3150177001953,153.5164794921875,348.1318664550781,,1543383738.814507
779,528.6447143554688,188.974365234375,150.6959686279297,191.39193725585938,,1543383738.818413
780,0.0,170.43955993652344,235.7142791748047,176.4835205078125,,1543383738.8223193
781,726.08056640625,178.90109252929688,242.96702575683594,285.6776428222656,,1543383738.8262253
782,172.05128479003906,182.93040466308594,116.04395294189453,229.26739501953125,,1543383738.8301313
783,983.1502075195312,179.7069549560547,95.4945068359375,130.95237731933594,,1543383738.8340373
784,0.0,159.56044006347656,185.75091552734375,89.04762268066406,,1543383738.8379436
785,611.6483764648438,163.1868133544922,228.05860900878906,188.57142639160156,,1543383738.8418496
786,168.42491149902344,192.60073852539062,168.8278350830078,304.6153869628906,,1543383738.8457556
787,1073.003662109375,188.57142639160156,100.32967376708984,193.40660095214844,,1543383738.8496616
788,0.0,189.37728881835938,211.13552856445312,213.55311584472656,,1543383738.8535678
789,289.70697021484375,179.7069549560547,278.02197265625,264.3223571777344,,1543383738.8574739
790,1628.6446533203125,159.56044006347656,137.39926147460938,148.27838134765625,,1543383738.8613799
791,1397.3626708984375,192.60073852539062,87.03296661376953,195.018310546875,,1543383738.8652859
792,120.47618865966797,183.73626708984375,152.3076934814453,142.23443603515625,,1543383738.8691921
793,0.0,151.5018310546875,199.85348510742188,67.28937530517578,,1543383738.8730981
794,1012.5640869140625,167.2161102294922,183.3333282470703,187.76556396484375,,1543383738.8770041
795,131.75823974609375,202.27105712890625,121.68498229980469,277.6190490722656,,1543383738.8809104
796,650.3296508789062,205.89743041992188,159.1575164794922,238.53480529785156,,1543383738.8848164
797,0.0,179.3040313720703,242.96702575683594,189.37728881835938,,1543383738.8887224
798,682.5640869140625,163.58973693847656,206.7032928466797,169.63369750976562,,1543383738.8926284
799,168.8278350830078,197.8388214111328,127.72893524169922,257.8754577636719,,1543383738.8965347
800,1027.87548828125,229.26739501953125,180.10989379882812,366.6666564941406,,1543383738.9004407
801,0.0,170.43955993652344,200.6593475341797,132.1611785888672,,1543383738.9043467
802,552.0146484375,139.41392517089844,163.1868133544922,9.670330047607422,,1543383738.9082527
803,150.6959686279297,186.55677795410156,140.21978759765625,222.0146484375,,1543383738.912159
804,1129.010986328125,206.7032928466797,118.86447143554688,250.21978759765625,,1543383738.916065
805,0.0,167.61904907226562,142.23443603515625,60.03662872314453,,1543383738.919971
806,184.94505310058594,146.26373291015625,178.90109252929688,10.879120826721191,,1543383738.923877
807,1501.3187255859375,176.4835205078125,162.38095092773438,175.27471923828125,,1543383738.9277833
808,1506.15380859375,207.5091552734375,114.43223571777344,259.4871826171875,,1543383738.9316893
809,229.6703338623047,201.06227111816406,170.8424835205078,201.86813354492188,,1543383738.9355953
810,0.0,168.02197265625,229.6703338623047,136.59339904785156,,1543383738.9395013
811,897.7289428710938,189.78021240234375,234.10256958007812,300.1831359863281,,1543383738.9434075
812,172.45420837402344,239.74359130859375,213.95603942871094,493.99267578125,,1543383738.9473135
813,799.4139404296875,192.1977996826172,139.41392517089844,195.42124938964844,,1543383738.9512196
814,0.0,149.89010620117188,162.7838897705078,10.476190567016602,,1543383738.9551256
815,660.0,157.54579162597656,185.75091552734375,105.97069549560547,,1543383738.9590318
816,171.24542236328125,185.34799194335938,115.64102935791016,211.13552856445312,,1543383738.9629378
817,1050.842529296875,189.37728881835938,89.04762268066406,150.2930450439453,,1543383738.9668438
818,0.0,166.8131866455078,166.41026306152344,72.12454223632812,,1543383738.9707499
819,473.8461608886719,157.94871520996094,209.5238037109375,122.0879135131836,,1543383738.974656
820,120.07325744628906,177.2893829345703,139.41392517089844,198.64468383789062,,1543383738.978562
821,1201.5384521484375,208.7179412841797,120.47618865966797,262.30767822265625,,1543383738.9824681
822,0.0,197.43589782714844,200.25640869140625,222.0146484375,,1543383738.9863744
823,72.52747344970703,186.55677795410156,282.05126953125,272.3809509277344,,1543383738.9902804
824,1324.029296875,187.36264038085938,220.0,301.79486083984375,,1543383738.9941864
825,1635.4945068359375,184.94505310058594,87.03296661376953,188.1685028076172,,1543383738.9980924
826,389.23077392578125,192.1977996826172,146.26373291015625,178.90109252929688,,1543383739.0019987
827,0.0,176.08058166503906,240.14651489257812,183.73626708984375,,1543383739.0059047
828,804.2490844726562,153.91941833496094,169.23077392578125,117.65567779541016,,1543383739.0098107
829,176.08058166503906,183.73626708984375,86.22710418701172,182.5274658203125,,1543383739.0137167
830,897.7289428710938,196.22711181640625,122.8937759399414,195.42124938964844,,1543383739.017623
831,0.0,160.76922607421875,188.1685028076172,82.19779968261719,,1543383739.021529
832,651.5384521484375,155.5311279296875,191.39193725585938,108.79120635986328,,1543383739.025435
833,174.4688720703125,201.06227111816406,159.1575164794922,300.989013671875,,1543383739.029341
834,1050.842529296875,234.5054931640625,193.40660095214844,415.018310546875,,1543383739.0332472
835,0.0,206.7032928466797,262.30767822265625,313.0769348144531,,1543383739.0371532
836,388.8278503417969,147.4725341796875,199.85348510742188,78.16849517822266,,1543383739.0410593
837,71.72161102294922,165.60440063476562,119.26740264892578,141.025634765625,,1543383739.0449653
838,1294.6153564453125,202.6739959716797,107.17948913574219,243.77288818359375,,1543383739.0488715
839,28.60805892944336,184.13919067382812,168.02197265625,157.94871520996094,,1543383739.0527775
840,0.0,144.65200805664062,187.76556396484375,39.487178802490234,,1543383739.0566835
841,1162.857177734375,158.75457763671875,148.27838134765625,129.74359130859375,,1543383739.0605896
842,85.01831817626953,211.13552856445312,135.7875518798828,314.28570556640625,,1543383739.0644958
843,548.7911987304688,191.39193725585938,147.87545776367188,184.94505310058594,,1543383739.0684018
844,0.0,147.06959533691406,173.26007080078125,4.835165023803711,,1543383739.0723078
845,721.2454223632812,176.08058166503906,209.5238037109375,184.54212951660156,,1543383739.0762138
846,172.05128479003906,231.6849822998047,206.3003692626953,451.28204345703125,,1543383739.08012
847,985.5677490234375,205.09156799316406,155.5311279296875,270.3663024902344,,1543383739.084026
848,0.0,150.6959686279297,153.5164794921875,5.641025543212891,,1543383739.087932
849,611.2454223632812,162.7838897705078,203.07691955566406,115.23809814453125,,1543383739.0918384
850,168.8278350830078,197.03297424316406,161.97802734375,282.4542236328125,,1543383739.0957444
851,1073.003662109375,192.60073852539062,99.12088012695312,187.36264038085938,,1543383739.0996504
852,0.0,161.57508850097656,143.04029846191406,40.29304122924805,,1543383739.1035564
853,277.6190490722656,154.3223419189453,207.5091552734375,99.12088012695312,,1543383739.1074626
854,1618.16845703125,185.34799194335938,186.55677795410156,268.3516540527344,,1543383739.1113687
855,1396.15380859375,196.22711181640625,105.97069549560547,232.89376831054688,,1543383739.1152747
856,119.67032623291016,168.02197265625,122.0879135131836,68.9011001586914,,1543383739.1191807
857,0.0,179.7069549560547,253.04029846191406,206.7032928466797,,1543383739.123087
858,987.9853515625,211.53846740722656,291.3186950683594,443.22344970703125,,1543383739.126993
859,145.86080932617188,198.24176025390625,134.1758270263672,286.8864440917969,,1543383739.130899
860,687.8021850585938,180.10989379882812,103.15018463134766,107.17948913574219,,1543383739.134805
861,0.0,160.76922607421875,192.60073852539062,76.95970916748047,,1543383739.1387112
862,680.952392578125,156.73992919921875,182.93040466308594,119.26740264892578,,1543383739.1426172
863,171.24542236328125,183.73626708984375,100.32967376708984,189.37728881835938,,1543383739.1465232
864,1033.91943359375,195.42124938964844,106.37362670898438,172.85714721679688,,1543383739.1504292
865,0.0,170.43955993652344,186.15383911132812,101.94139099121094,,1543383739.1543355
866,550.0,149.89010620117188,190.58607482910156,89.04762268066406,,1543383739.1582415
867,151.09890747070312,173.26007080078125,116.84981536865234,171.24542236328125,,1543383739.1621475
868,1125.3846435546875,200.6593475341797,105.97069549560547,227.65567016601562,,1543383739.1660535
869,0.0,190.1831512451172,196.22711181640625,194.61538696289062,,1543383739.1699598
870,171.64834594726562,173.6630096435547,255.45787048339844,204.6886444091797,,1543383739.1738658
871,1489.230712890625,178.90109252929688,184.94505310058594,238.93772888183594,,1543383739.1777718
872,1492.4542236328125,207.91209411621094,123.69963073730469,284.4688720703125,,1543383739.181678
873,211.53846740722656,212.74725341796875,209.92674255371094,305.018310546875,,1543383739.185584
874,0.0,161.57508850097656,222.0146484375,114.43223571777344,,1543383739.18949
875,901.3552856445312,149.89010620117188,147.06959533691406,79.37728881835938,,1543383739.193396
876,166.00732421875,210.3296661376953,134.57875061035156,311.4652099609375,,1543383739.1973023
877,772.8204956054688,220.8058624267578,191.39193725585938,338.8644714355469,,1543383739.2012084
878,0.0,154.3223419189453,191.39193725585938,70.10989379882812,,1543383739.2051144
879,662.4176025390625,143.44322204589844,167.61904907226562,63.663002014160156,,1543383739.2090204
880,169.63369750976562,189.37728881835938,129.3406524658203,247.8022003173828,,1543383739.2129266
881,1051.245361328125,216.37362670898438,159.1575164794922,318.71795654296875,,1543383739.2168326
882,0.0,176.88644409179688,208.7179412841797,168.8278350830078,,1543383739.2207386
883,469.8168640136719,136.996337890625,176.88644409179688,35.86080551147461,,1543383739.2246447
884,118.05860900878906,199.04762268066406,189.37728881835938,326.3736267089844,,1543383739.228551
885,1208.3883056640625,240.95237731933594,211.53846740722656,483.5164794921875,,1543383739.232457
886,0.0,176.4835205078125,176.88644409179688,153.91941833496094,,1543383739.236363
887,63.260074615478516,147.06959533691406,190.1831512451172,56.81318664550781,,1543383739.240269
888,1311.135498046875,173.26007080078125,171.24542236328125,207.10623168945312,,1543383739.2441752
889,1638.3150634765625,195.018310546875,104.35897064208984,234.5054931640625,,1543383739.2480812
890,393.6629943847656,172.05128479003906,109.19413757324219,83.4065933227539,,1543383739.2519872
891,0.0,151.90475463867188,182.5274658203125,30.622711181640625,,1543383739.2558932
892,797.8021850585938,166.8131866455078,188.1685028076172,146.6666717529297,,1543383739.2597995
893,172.85714721679688,208.7179412841797,147.87545776367188,325.970703125,,1543383739.2637055
894,886.0439453125,199.45054626464844,143.04029846191406,234.90843200683594,,1543383739.2676115
895,0.0,163.99267578125,189.78021240234375,85.01831817626953,,1543383739.2715175
896,651.5384521484375,184.13919067382812,258.27838134765625,272.78387451171875,,1543383739.2754238
897,172.85714721679688,193.8095245361328,157.94871520996094,289.70697021484375,,1543383739.2793298
898,1051.245361328125,186.15383911132812,78.16849517822266,134.57875061035156,,1543383739.2832358
899,0.0,180.91575622558594,183.3333282470703,136.59339904785156,,1543383739.287142
900,381.97802734375,169.63369750976562,232.08790588378906,168.8278350830078,,1543383739.291048
901,66.88644409179688,171.64834594726562,132.56410217285156,161.97802734375,,1543383739.294954
902,1296.22705078125,193.40660095214844,83.4065933227539,178.90109252929688,,1543383739.29886
903,34.24908447265625,188.1685028076172,166.8131866455078,154.72528076171875,,1543383739.3027663
904,0.0,165.60440063476562,224.029296875,124.5054931640625,,1543383739.3066723
905,1137.87548828125,178.90109252929688,195.42124938964844,232.4908447265625,,1543383739.3105783
906,86.63003540039062,197.8388214111328,108.38827514648438,241.35531616210938,,1543383739.3144844
907,547.9853515625,209.92674255371094,172.85714721679688,258.27838134765625,,1543383739.3183906
908,0.0,191.7948760986328,275.20147705078125,263.5164794921875,,1543383739.3222966
909,726.4835205078125,153.11355590820312,173.26007080078125,106.77655792236328,,1543383739.3262026
910,172.45420837402344,187.76556396484375,95.4945068359375,196.63003540039062,,1543383739.3301086
911,975.091552734375,199.85348510742188,123.69963073730469,207.91209411621094,,1543383739.334015
912,0.0,160.36630249023438,180.10989379882812,68.9011001586914,,1543383739.337921
913,614.06591796875,140.62271118164062,169.23077392578125,33.0402946472168,,1543383739.341827
914,168.42491149902344,188.57142639160156,138.60806274414062,238.93772888183594,,1543383739.345733
915,1073.4066162109375,218.7912139892578,159.96336364746094,338.4615478515625,,1543383739.3496392
916,0.0,172.05128479003906,182.5274658203125,129.3406524658203,,1543383739.3535452
917,282.8571472167969,153.5164794921875,211.13552856445312,108.38827514648438,,1543383739.3574512
918,1621.3919677734375,190.989013671875,199.85348510742188,311.062255859375,,1543383739.3613572
919,1400.5860595703125,231.2820587158203,189.78021240234375,435.5677795410156,,1543383739.3652635
920,119.26740264892578,186.55677795410156,179.3040313720703,201.46519470214844,,1543383739.3691695
921,0.0,136.1904754638672,169.23077392578125,0.0,,1543383739.3730755
922,1014.1758422851562,165.2014617919922,174.4688720703125,146.26373291015625,,1543383739.3769815
923,147.87545776367188,200.25640869140625,123.69963073730469,273.5897521972656,,1543383739.3808877
924,688.6080322265625,179.3040313720703,116.04395294189453,128.13186645507812,,1543383739.3847938
925,0.0,143.84616088867188,170.43955993652344,10.476190567016602,,1543383739.3886998
926,679.7435913085938,155.5311279296875,190.989013671875,119.26740264892578,,1543383739.392606
927,170.03663635253906,190.989013671875,131.35531616210938,253.04029846191406,,1543383739.396512
928,1036.3370361328125,191.39193725585938,108.79120635986328,181.3186798095703,,1543383739.400418
929,0.0,170.03663635253906,195.42124938964844,123.29669952392578,,1543383739.404324
930,520.989013671875,185.75091552734375,280.8424987792969,302.6007385253906,,1543383739.4082303
931,138.60806274414062,220.40292358398438,251.42857360839844,483.1135559082031,,1543383739.4121363
932,1134.2490234375,194.2124481201172,126.92308044433594,261.5018310546875,,1543383739.4160423
933,0.0,158.35165405273438,138.2051239013672,52.78388214111328,,1543383739.4199483
934,178.4981689453125,149.4871826171875,203.88278198242188,81.3919448852539,,1543383739.4238546
935,1488.4249267578125,166.8131866455078,153.5164794921875,173.26007080078125,,1543383739.4277606
936,1518.24169921875,187.76556396484375,80.18315124511719,182.5274658203125,,1543383739.4316666
937,242.96702575683594,177.6923065185547,128.53480529785156,108.38827514648438,,1543383739.4355726
938,0.0,159.56044006347656,209.5238037109375,101.53845977783203,,1543383739.4394789
939,897.7289428710938,160.36630249023438,171.64834594726562,141.8314971923828,,1543383739.443385
940,170.8424835205078,196.63003540039062,110.4029312133789,240.95237731933594,,1543383739.447291
941,790.952392578125,211.53846740722656,165.2014617919922,275.20147705078125,,1543383739.451197
942,0.0,206.7032928466797,294.1391906738281,328.3882751464844,,1543383739.4551032
943,660.8058471679688,180.91575622558594,251.8314971923828,261.9047546386719,,1543383739.4590092
944,170.43955993652344,186.55677795410156,116.84981536865234,217.1794891357422,,1543383739.4629152
945,1050.842529296875,223.62637329101562,154.72528076171875,317.5091552734375,,1543383739.4668212
946,0.0,193.003662109375,219.59707641601562,200.6593475341797,,1543383739.4707274
947,467.3992614746094,151.5018310546875,186.55677795410156,62.0512809753418,,1543383739.4746335
948,116.84981536865234,172.85714721679688,113.62637329101562,147.06959533691406,,1543383739.4785395
949,1194.6885986328125,209.12088012695312,108.79120635986328,247.8022003173828,,1543383739.4824457
950,0.0,188.57142639160156,163.99267578125,139.010986328125,,1543383739.4863517
951,68.0952377319336,152.7106170654297,182.12454223632812,26.593406677246094,,1543383739.4902577
952,1325.238037109375,165.60440063476562,136.1904754638672,111.20879364013672,,1543383739.4941638
953,1612.12451171875,232.89376831054688,161.97802734375,386.8132019042969,,1543383739.49807
954,356.19049072265625,228.86447143554688,228.86447143554688,363.040283203125,,1543383739.501976
955,0.0,152.7106170654297,193.40660095214844,50.36629867553711,,1543383739.505882
956,799.8168334960938,155.93406677246094,159.1575164794922,93.88278198242188,,1543383739.509788
957,174.4688720703125,201.06227111816406,119.26740264892578,257.4725341796875,,1543383739.5136943
958,898.937744140625,193.003662109375,118.86447143554688,174.4688720703125,,1543383739.5176003
959,0.0,161.97802734375,186.15383911132812,75.75091552734375,,1543383739.5215063
960,651.5384521484375,161.97802734375,209.92674255371094,156.3369903564453,,1543383739.5254123
961,174.06593322753906,196.63003540039062,162.7838897705078,302.6007385253906,,1543383739.5293186
962,1050.4395751953125,201.46519470214844,132.96702575683594,253.04029846191406,,1543383739.5332246
963,0.0,156.3369903564453,152.7106170654297,43.11355209350586,,1543383739.5371306
964,369.4871826171875,144.24908447265625,194.61538696289062,72.93040466308594,,1543383739.5410366
965,57.21611785888672,190.1831512451172,188.1685028076172,303.80950927734375,,1543383739.5449429
966,1295.82421875,207.5091552734375,142.63735961914062,320.3296813964844,,1543383739.5488489
967,37.875457763671875,160.36630249023438,136.1904754638672,78.57142639160156,,1543383739.5527549
968,0.0,149.4871826171875,205.89743041992188,89.85347747802734,,1543383739.556661
969,1109.2674560546875,191.7948760986328,246.996337890625,357.80218505859375,,1543383739.5605671
970,88.64469146728516,193.8095245361328,139.010986328125,305.8241882324219,,1543383739.5644732
971,552.8204956054688,165.2014617919922,109.19413757324219,94.68864440917969,,1543383739.5683792
972,0.0,153.11355590820312,204.2857208251953,91.46520233154297,,1543383739.5722852
973,722.4542236328125,153.5164794921875,193.003662109375,157.14285278320312,,1543383739.5761914
974,172.45420837402344,188.974365234375,122.8937759399414,252.63735961914062,,1543383739.5800974
975,987.5823974609375,193.40660095214844,131.35531616210938,215.1648406982422,,1543383739.5840034
976,0.0,170.43955993652344,213.95603942871094,160.36630249023438,,1543383739.5879097
977,605.6043701171875,179.3040313720703,267.5457763671875,287.69232177734375,,1543383739.5918157
978,166.8131866455078,182.5274658203125,154.72528076171875,267.1428527832031,,1543383739.5957217
979,1074.6153564453125,182.5274658203125,81.79486846923828,151.09890747070312,,1543383739.5996277
980,0.0,192.1977996826172,211.94139099121094,221.61172485351562,,1543383739.603534
981,282.05126953125,181.3186798095703,278.8278503417969,273.1867980957031,,1543383739.60744
982,1620.989013671875,164.39559936523438,141.42857360839844,161.97802734375,,1543383739.611346
983,1400.989013671875,194.2124481201172,87.43589782714844,199.85348510742188,,1543383739.615252
984,121.68498229980469,187.36264038085938,155.93406677246094,154.3223419189453,,1543383739.6191583
985,0.0,154.3223419189453,196.63003540039062,66.0805892944336,,1543383739.6230643
986,1009.7435913085938,159.56044006347656,150.6959686279297,113.22344207763672,,1543383739.6269703
987,137.39926147460938,199.85348510742188,101.94139099121094,234.5054931640625,,1543383739.6308763
988,664.8351440429688,201.86813354492188,142.23443603515625,204.6886444091797,,1543383739.6347826
989,0.0,181.3186798095703,229.6703338623047,166.41026306152344,,1543383739.6386886
990,680.1465454101562,176.88644409179688,228.05860900878906,228.86447143554688,,1543383739.6425946
991,168.8278350830078,198.24176025390625,133.36996459960938,273.5897521972656,,1543383739.6465006
992,1031.5018310546875,244.981689453125,212.34432983398438,445.6410217285156,,1543383739.6504068
993,0.0,196.22711181640625,256.6666564941406,268.75457763671875,,1543383739.6543128
994,535.4945068359375,144.65200805664062,184.94505310058594,67.28937530517578,,1543383739.6582189
995,144.65200805664062,193.8095245361328,162.38095092773438,283.26007080078125,,1543383739.6621249
996,1133.4432373046875,210.3296661376953,129.74359130859375,283.26007080078125,,1543383739.6660311
997,0.0,164.7985382080078,143.04029846191406,67.28937530517578,,1543383739.6699371
998,167.2161102294922,143.84616088867188,178.4981689453125,14.102563858032227,,1543383739.6738431
999,1476.7398681640625,177.2893829345703,164.7985382080078,184.13919067382812,,1543383739.6777492
1000,1517.032958984375,204.6886444091797,116.44688415527344,261.0989074707031,,1543383739.6816554
1001,239.3406524658203,195.8241729736328,170.43955993652344,205.89743041992188,,1543383739.6855614
1002,0.0,159.56044006347656,218.7912139892578,114.02930450439453,,1543383739.6894674
1003,890.4761962890625,180.91575622558594,224.029296875,265.5311279296875,,1543383739.6933737
1004,170.03663635253906,228.05860900878906,193.8095245361328,436.3736267089844,,1543383739.6972797
1005,793.7728881835938,190.58607482910156,140.21978759765625,202.6739959716797,,1543383739.7011857
1006,0.0,149.4871826171875,177.2893829345703,38.68132019042969,,1543383739.7050917
1007,660.8058471679688,159.56044006347656,209.5238037109375,151.09890747070312,,1543383739.708998
1008,170.43955993652344,190.1831512451172,144.65200805664062,271.1721496582031,,1543383739.712904
1009,1051.245361328125,184.13919067382812,91.46520233154297,151.5018310546875,,1543383739.71681
1010,0.0,159.56044006347656,163.99267578125,57.619049072265625,,1543383739.720716
1011,460.1465148925781,149.4871826171875,205.4945068359375,99.52381134033203,,1543383739.7246222
1012,113.22344207763672,169.63369750976562,137.39926147460938,192.1977996826172,,1543383739.7285283
1013,1205.970703125,203.07691955566406,122.0879135131836,268.3516540527344,,1543383739.7324343
1014,0.0,190.58607482910156,203.88278198242188,232.4908447265625,,1543383739.7363403
1015,68.9011001586914,176.08058166503906,279.23077392578125,265.1282043457031,,1543383739.7402465
1016,1315.970703125,171.64834594726562,196.63003540039062,248.2051239013672,,1543383739.7441525
1017,1643.5531005859375,179.7069549560547,77.36264038085938,167.61904907226562,,1543383739.7480586
1018,403.3333435058594,181.72161865234375,136.59339904785156,151.5018310546875,,1543383739.7519646
1019,0.0,157.54579162597656,209.12088012695312,107.17948913574219,,1543383739.7558708
1020,786.923095703125,159.56044006347656,187.36264038085938,163.1868133544922,,1543383739.7597768
1021,173.6630096435547,183.3333282470703,100.73259735107422,207.91209411621094,,1543383739.7636828
1022,906.5933837890625,203.88278198242188,141.8314971923828,238.93772888183594,,1543383739.7675889
1023,0.0,178.90109252929688,230.07325744628906,187.36264038085938,,1543383739.771495
1024,650.7326049804688,145.86080932617188,179.7069549560547,80.5860824584961,,1543383739.775401
1025,174.87179565429688,187.76556396484375,130.54945373535156,234.5054931640625,,1543383739.7793071
1026,1050.4395751953125,232.89376831054688,186.15383911132812,400.1098937988281,,1543383739.7832134
1027,0.0,203.88278198242188,251.025634765625,286.4835205078125,,1543383739.7871194
1028,377.1428527832031,145.86080932617188,191.39193725585938,59.230770111083984,,1543383739.7910254
1029,62.85714340209961,170.43955993652344,126.92308044433594,154.72528076171875,,1543383739.7949314
1030,1299.853515625,204.2857208251953,108.79120635986328,241.75823974609375,,1543383739.7988377
1031,34.24908447265625,176.88644409179688,146.6666717529297,113.62637329101562,,1543383739.8027437
1032,0.0,143.44322204589844,176.88644409179688,2.8205127716064453,,1543383739.8066497
1033,1144.3223876953125,164.39559936523438,155.12820434570312,114.02930450439453,,1543383739.8105557
1034,85.4212417602539,208.3150177001953,121.28205108642578,276.8132019042969,,1543383739.814462
1035,547.5823974609375,195.8241729736328,153.5164794921875,198.24176025390625,,1543383739.818368
1036,0.0,155.12820434570312,195.42124938964844,60.43955993652344,,1543383739.822274
1037,713.99267578125,170.43955993652344,203.07691955566406,179.7069549560547,,1543383739.82618
1038,170.8424835205078,242.96702575683594,231.6849822998047,516.1538696289062,,1543383739.8300862
1039,992.8204956054688,230.4761962890625,213.55311584472656,407.76556396484375,,1543383739.8339922
1040,0.0,153.91941833496094,168.02197265625,29.816850662231445,,1543383739.8378983
1041,607.2161254882812,157.94871520996094,195.018310546875,96.70330047607422,,1543383739.8418043
1042,167.61904907226562,193.40660095214844,147.87545776367188,254.65200805664062,,1543383739.8457105
1043,1074.6153564453125,192.60073852539062,91.86813354492188,181.72161865234375,,1543383739.8496165
1044,0.0,163.58973693847656,143.04029846191406,48.35165023803711,,1543383739.8535225
1045,260.69598388671875,153.91941833496094,204.6886444091797,91.86813354492188,,1543383739.8574286
1046,1600.842529296875,177.2893829345703,166.00732421875,220.0,,1543383739.8613348
1047,1407.8388671875,193.40660095214844,93.07691955566406,206.7032928466797,,1543383739.8652408
1048,128.93772888183594,178.4981689453125,141.025634765625,114.83516693115234,,1543383739.8691468
1049,0.0,186.95970153808594,270.76922607421875,241.75823974609375,,1543383739.8730528
1050,973.076904296875,216.77655029296875,303.4065856933594,467.3992614746094,,1543383739.876959
1051,148.6813201904297,204.2857208251953,148.6813201904297,318.3150329589844,,1543383739.880865
1052,699.084228515625,178.09524536132812,104.35897064208984,102.34432220458984,,1543383739.884771
1053,0.0,159.1575164794922,197.43589782714844,88.24176025390625,,1543383739.8886774
1054,678.5347900390625,159.1575164794922,193.003662109375,139.8168487548828,,1543383739.8925834
1055,171.24542236328125,184.13919067382812,101.53845977783203,186.95970153808594,,1543383739.8964894
1056,1035.93408203125,193.003662109375,102.34432220458984,168.42491149902344,,1543383739.9003954
1057,0.0,169.63369750976562,187.76556396484375,104.35897064208984,,1543383739.9043016
1058,542.7472534179688,151.09890747070312,197.03297424316406,91.86813354492188,,1543383739.9082077
1059,148.27838134765625,173.6630096435547,123.69963073730469,178.09524536132812,,1543383739.9121137
1060,1134.2490234375,199.85348510742188,105.97069549560547,220.40292358398438,,1543383739.9160197
1061,0.0,193.003662109375,203.4798583984375,209.12088012695312,,1543383739.919926
1062,163.1868133544922,167.2161102294922,243.77288818359375,170.8424835205078,,1543383739.923832
1063,1476.7398681640625,163.58973693847656,150.6959686279297,155.12820434570312,,1543383739.927738
1064,1506.5567626953125,200.25640869140625,104.76190185546875,243.36996459960938,,1543383739.931644
1065,226.04396057128906,232.4908447265625,251.025634765625,407.76556396484375,,1543383739.9355502
1066,0.0,183.73626708984375,281.24542236328125,257.0696105957031,,1543383739.9394562
1067,891.2820434570312,150.2930450439453,152.7106170654297,92.27106475830078,,1543383739.9433622
1068,172.85714721679688,199.85348510742188,114.02930450439453,263.1135559082031,,1543383739.9472682
1069,806.6666870117188,196.63003540039062,139.010986328125,215.1648406982422,,1543383739.9511745
1070,0.0,152.7106170654297,174.87179565429688,30.622711181640625,,1543383739.9550805
1071,659.1941528320312,147.87545776367188,168.8278350830078,55.20146560668945,,1543383739.9589865
1072,171.24542236328125,191.7948760986328,131.35531616210938,250.62271118164062,,1543383739.9628925
1073,1050.842529296875,215.970703125,155.93406677246094,314.28570556640625,,1543383739.9667988
1074,0.0,180.5128173828125,214.35897827148438,185.75091552734375,,1543383739.9707048
1075,457.3260192871094,145.05494689941406,191.39193725585938,71.72161102294922,,1543383739.9746108
1076,111.61172485351562,199.45054626464844,186.95970153808594,323.1501770019531,,1543383739.9785168
1077,1217.2528076171875,231.6849822998047,186.95970153808594,428.71795654296875,,1543383739.982423
1078,0.0,165.60440063476562,145.45787048339844,84.21245574951172,,1543383739.986329
1079,50.36629867553711,142.63735961914062,180.10989379882812,23.77289390563965,,1543383739.990235
1080,1290.5860595703125,172.85714721679688,176.4835205078125,205.4945068359375,,1543383739.9941413
1081,1649.194091796875,197.03297424316406,111.61172485351562,254.24908447265625,,1543383739.9980474
1082,412.6007385253906,173.6630096435547,115.23809814453125,97.9120864868164,,1543383740.0019534
1083,0.0,151.09890747070312,184.54212951660156,36.263736724853516,,1543383740.0058594
1084,764.7619018554688,177.2893829345703,215.56776428222656,219.1941375732422,,1543383740.0097656
1085,169.63369750976562,214.35897827148438,166.41026306152344,367.8754577636719,,1543383740.0136716
1086,915.054931640625,193.003662109375,124.9084243774414,190.58607482910156,,1543383740.0175776
1087,0.0,163.58973693847656,182.12454223632812,73.73626708984375,,1543383740.0214837
1088,643.076904296875,186.95970153808594,261.0989074707031,286.0805969238281,,1543383740.02539
1089,172.45420837402344,196.63003540039062,162.7838897705078,304.6153869628906,,1543383740.029296
1090,1051.6483154296875,189.78021240234375,87.83882904052734,155.93406677246094,,1543383740.033202
1091,0.0,177.2893829345703,176.4835205078125,117.65567779541016,,1543383740.037108
1092,372.30767822265625,159.56044006347656,213.55311584472656,125.31135559082031,,1543383740.0410142
1093,59.230770111083984,170.03663635253906,134.1758270263672,168.8278350830078,,1543383740.0449202
1094,1301.062255859375,193.8095245361328,87.03296661376953,191.7948760986328,,1543383740.0488262
1095,39.08424758911133,187.76556396484375,164.7985382080078,158.75457763671875,,1543383740.0527322
1096,0.0,166.8131866455078,231.6849822998047,149.89010620117188,,1543383740.0566385
1097,1114.5054931640625,181.3186798095703,206.7032928466797,261.0989074707031,,1543383740.0605445
1098,97.5091552734375,204.2857208251953,128.53480529785156,286.8864440917969,,1543383740.0644505
1099,570.1465454101562,211.13552856445312,180.5128173828125,275.20147705078125,,1543383740.0683565
1100,0.0,203.07691955566406,301.79486083984375,329.5970764160156,,1543383740.0722628
1101,719.2307739257812,157.54579162597656,196.22711181640625,153.11355590820312,,1543383740.0761688
1102,172.45420837402344,191.7948760986328,109.19413757324219,228.86447143554688,,1543383740.0800748
1103,984.7619018554688,211.94139099121094,147.87545776367188,275.20147705078125,,1543383740.083981
1104,0.0,162.38095092773438,180.5128173828125,76.95970916748047,,1543383740.087887
1105,610.03662109375,144.24908447265625,167.2161102294922,37.06959533691406,,1543383740.091793
1106,168.02197265625,181.72161865234375,118.86447143554688,193.40660095214844,,1543383740.095699
1107,1076.22705078125,203.88278198242188,116.84981536865234,243.36996459960938,,1543383740.0996053
1108,0.0,169.63369750976562,160.36630249023438,87.03296661376953,,1543383740.1035113
1109,251.8314971923828,161.1721649169922,220.0,131.35531616210938,,1543383740.1074173
1110,1593.99267578125,191.39193725585938,198.24176025390625,303.80950927734375,,1543383740.1113234
1111,1396.15380859375,242.96702575683594,210.3296661376953,494.79852294921875,,1543383740.1152296
1112,110.80586242675781,208.7179412841797,229.26739501953125,327.9853515625,,1543383740.1191356
1113,0.0,136.1904754638672,174.06593322753906,0.0,,1543383740.1230416
1114,998.8644409179688,163.1868133544922,169.63369750976562,143.44322204589844,,1543383740.1269476
1115,152.7106170654297,199.04762268066406,122.0879135131836,278.4248962402344,,1543383740.130854
1116,704.7252807617188,176.4835205078125,107.5824203491211,116.84981536865234,,1543383740.13476
1117,0.0,144.24908447265625,163.99267578125,5.238095283508301,,1543383740.138666
1118,677.3259887695312,155.93406677246094,187.76556396484375,113.62637329101562,,1543383740.142572
1119,170.03663635253906,188.1685028076172,126.92308044433594,242.1611785888672,,1543383740.1464782
1120,1038.3516845703125,186.95970153808594,103.55311584472656,177.2893829345703,,1543383740.1503842
1121,0.0,163.99267578125,185.34799194335938,104.35897064208984,,1543383740.1542902
1122,508.0952453613281,178.4981689453125,268.75457763671875,276.00732421875,,1543383740.1581962
1123,133.36996459960938,207.91209411621094,220.40292358398438,411.3919372558594,,1543383740.1621025
1124,1144.7252197265625,185.75091552734375,96.70330047607422,191.39193725585938,,1543383740.1660085
1125,0.0,168.8278350830078,151.90475463867188,91.46520233154297,,1543383740.1699145
1126,159.96336364746094,170.03663635253906,249.8168487548828,200.6593475341797,,1543383740.1738205
1127,1461.4285888671875,173.26007080078125,180.10989379882812,232.89376831054688,,1543383740.1777267
1128,1541.208740234375,184.94505310058594,76.95970916748047,176.4835205078125,,1543383740.1816328
1129,267.94873046875,178.4981689453125,122.0879135131836,105.16483306884766,,1543383740.1855388
1130,0.0,158.75457763671875,203.4798583984375,91.86813354492188,,1543383740.189445
1131,888.05859375,157.94871520996094,168.02197265625,135.7875518798828,,1543383740.193351
1132,172.05128479003906,187.36264038085938,86.63003540039062,192.1977996826172,,1543383740.197257
1133,803.8461303710938,205.4945068359375,142.23443603515625,234.10256958007812,,1543383740.201163
1134,0.0,197.03297424316406,271.97802734375,284.0659484863281,,1543383740.2050693
1135,659.5970458984375,168.42491149902344,228.46153259277344,206.7032928466797,,1543383740.2089753
1136,170.8424835205078,178.09524536132812,94.28571319580078,163.99267578125,,1543383740.2128813
1137,1051.245361328125,205.89743041992188,110.0,219.1941375732422,,1543383740.2167873
1138,0.0,180.5128173828125,188.1685028076172,134.1758270263672,,1543383740.2206936
1139,454.1025695800781,148.27838134765625,179.3040313720703,50.36629867553711,,1543383740.2245996
1140,110.4029312133789,179.7069549560547,132.96702575683594,188.57142639160156,,1543383740.2285056
1141,1209.5970458984375,230.07325744628906,161.57508850097656,371.5018310546875,,1543383740.2324116
1142,0.0,201.86813354492188,207.91209411621094,243.36996459960938,,1543383740.2363179
1143,49.157508850097656,147.4725341796875,188.1685028076172,45.128204345703125,,1543383740.240224
1144,1296.6300048828125,159.96336364746094,136.1904754638672,116.44688415527344,,1543383740.24413
1145,1628.6446533203125,227.65567016601562,160.36630249023438,386.00732421875,,1543383740.248036
1146,377.1428527832031,222.0146484375,223.62637329101562,364.6520080566406,,1543383740.2519422
1147,0.0,148.6813201904297,189.78021240234375,49.56044006347656,,1543383740.2558482
1148,782.4908447265625,151.09890747070312,153.91941833496094,84.61538696289062,,1543383740.2597542
1149,173.6630096435547,194.2124481201172,114.43223571777344,248.60806274414062,,1543383740.2636602
1150,919.084228515625,190.989013671875,121.28205108642578,186.55677795410156,,1543383740.2675664
1151,0.0,151.90475463867188,165.2014617919922,24.175825119018555,,1543383740.2714725
1152,649.5238037109375,151.09890747070312,176.08058166503906,62.0512809753418,,1543383740.2753785
1153,175.27471923828125,193.003662109375,139.41392517089844,247.8022003173828,,1543383740.2792845
1154,1049.6336669921875,196.63003540039062,111.20879364013672,209.12088012695312,,1543383740.2831907
1155,0.0,168.8278350830078,169.23077392578125,93.88278198242188,,1543383740.2870967
1156,348.1318664550781,162.38095092773438,228.46153259277344,161.57508850097656,,1543383740.2910028
1157,39.487178802490234,217.58241271972656,255.05494689941406,461.75823974609375,,1543383740.294909
1158,1316.3736572265625,235.7142791748047,209.5238037109375,476.26373291015625,,1543383740.298815
1159,50.769229888916016,162.38095092773438,137.39926147460938,83.003662109375,,1543383740.302721
1160,0.0,149.08424377441406,199.85348510742188,74.54212188720703,,1543383740.306627
1161,1089.9267578125,175.6776580810547,196.22711181640625,231.6849822998047,,1543383740.3105333
1162,104.35897064208984,188.974365234375,96.30036926269531,212.74725341796875,,1543383740.3144393
1163,583.040283203125,174.06593322753906,107.9853515625,99.12088012695312,,1543383740.3183453
1164,0.0,155.5311279296875,200.6593475341797,85.4212417602539,,1543383740.3222513
1165,714.3956298828125,159.96336364746094,203.07691955566406,171.64834594726562,,1543383740.3261576
1166,172.45420837402344,179.7069549560547,108.38827514648438,211.53846740722656,,1543383740.3300636
1167,998.8644409179688,181.72161865234375,99.92674255371094,151.5018310546875,,1543383740.3339696
1168,0.0,163.1868133544922,189.78021240234375,102.34432220458984,,1543383740.3378756
1169,591.90478515625,166.41026306152344,240.95237731933594,215.970703125,,1543383740.3417819
1170,162.7838897705078,195.42124938964844,184.13919067382812,335.6410217285156,,1543383740.3456879
1171,1081.4652099609375,196.22711181640625,120.47618865966797,240.54945373535156,,1543383740.3495939
1172,0.0,188.974365234375,211.53846740722656,223.22344970703125,,1543383740.3535
1173,255.05494689941406,190.58607482910156,304.21246337890625,336.4468994140625,,1543383740.3574061
1174,1589.96337890625,170.03663635253906,166.8131866455078,217.58241271972656,,1543383740.3613122
1175,1427.5823974609375,188.974365234375,81.3919448852539,189.37728881835938,,1543383740.3652182
1176,143.44322204589844,183.3333282470703,150.2930450439453,151.09890747070312,,1543383740.3691242
1177,0.0,149.08424377441406,193.003662109375,59.63370132446289,,1543383740.3730304
1178,993.2234497070312,153.5164794921875,149.89010620117188,106.37362670898438,,1543383740.3769364
1179,145.86080932617188,194.61538696289062,101.94139099121094,230.4761962890625,,1543383740.3808424
1180,686.996337890625,197.8388214111328,141.42857360839844,203.07691955566406,,1543383740.3847487
1181,0.0,172.85714721679688,222.0146484375,145.86080932617188,,1543383740.3886547
1182,676.5201416015625,162.38095092773438,203.88278198242188,165.60440063476562,,1543383740.3925607
1183,169.23077392578125,193.003662109375,123.69963073730469,251.8314971923828,,1543383740.3964667
1184,1036.7398681640625,230.07325744628906,182.12454223632812,372.30767822265625,,1543383740.400373
1185,0.0,178.90109252929688,216.77655029296875,175.27471923828125,,1543383740.404279
1186,527.4359130859375,147.4725341796875,187.76556396484375,76.95970916748047,,1543383740.408185
1187,141.8314971923828,197.03297424316406,166.00732421875,294.945068359375,,1543383740.412091
1188,1143.91943359375,220.8058624267578,151.5018310546875,343.69964599609375,,1543383740.4159973
1189,0.0,168.42491149902344,149.89010620117188,89.45054626464844,,1543383740.4199033
1190,145.86080932617188,145.86080932617188,176.08058166503906,18.937728881835938,,1543383740.4238093
1191,1446.5201416015625,178.09524536132812,161.97802734375,193.40660095214844,,1543383740.4277153
1192,1539.5970458984375,206.3003692626953,111.20879364013672,266.3370056152344,,1543383740.4316216
1193,264.3223571777344,199.04762268066406,163.58973693847656,203.4798583984375,,1543383740.4355276
1194,0.0,157.14285278320312,197.43589782714844,72.52747344970703,,1543383740.4394336
1195,873.1502075195312,184.54212951660156,214.76190185546875,256.6666564941406,,1543383740.4433396
1196,173.6630096435547,232.4908447265625,193.40660095214844,448.4615478515625,,1543383740.4472458
1197,823.1868286132812,185.34799194335938,114.43223571777344,155.5311279296875,,1543383740.4511518
1198,0.0,152.3076934814453,161.57508850097656,20.549449920654297,,1543383740.4550579
1199,657.9853515625,159.1575164794922,188.1685028076172,111.61172485351562,,1543383740.4589639
1200,171.64834594726562,188.57142639160156,124.5054931640625,232.08790588378906,,1543383740.4628701
1201,1051.245361328125,199.85348510742188,116.44688415527344,217.58241271972656,,1543383740.4667761
1202,0.0,169.63369750976562,176.88644409179688,98.31501770019531,,1543383740.4706821
1203,445.23809814453125,162.7838897705078,224.029296875,152.7106170654297,,1543383740.4745882
1204,105.97069549560547,185.34799194335938,162.7838897705078,246.59339904785156,,1543383740.4784944
1205,1219.6702880859375,205.4945068359375,124.1025619506836,267.5457763671875,,1543383740.4824004
1206,0.0,186.95970153808594,181.72161865234375,178.4981689453125,,1543383740.4863064
1207,45.53113555908203,180.91575622558594,266.73992919921875,236.92308044433594,,1543383740.4902127
1208,1276.4835205078125,177.6923065185547,205.4945068359375,265.9340515136719,,1543383740.4941187
1209,15.311355590820312,177.6923065185547,75.34798431396484,164.7985382080078,,1543383740.4980247
1210,433.9560546875,188.57142639160156,149.08424377441406,190.58607482910156,,1543383740.5019307
1211,0.0,163.1868133544922,228.86447143554688,151.5018310546875,,1543383740.505837
1212,776.4468994140625,145.86080932617188,164.39559936523438,100.73259735107422,,1543383740.509743
1213,174.4688720703125,179.7069549560547,91.06227111816406,187.76556396484375,,1543383740.513649
1214,925.5311279296875,193.40660095214844,130.14651489257812,206.3003692626953,,1543383740.517555
1215,0.0,161.1721649169922,199.04762268066406,102.34432220458984,,1543383740.5214612
1216,641.4652099609375,153.5164794921875,204.6886444091797,132.56410217285156,,1543383740.5253673
1217,173.26007080078125,195.8241729736328,167.2161102294922,310.25640869140625,,1543383740.5292733
1218,1050.842529296875,230.4761962890625,190.58607482910156,403.3333435058594,,1543383740.5331793
1219,0.0,211.13552856445312,277.6190490722656,354.1758117675781,,1543383740.5370855
1220,352.1611633300781,150.2930450439453,223.62637329101562,130.54945373535156,,1543383740.5409915
1221,39.89011001586914,161.57508850097656,124.1025619506836,141.025634765625,,1543383740.5448976
1222,1327.6556396484375,199.45054626464844,102.34432220458984,233.2967071533203,,1543383740.5488036
1223,54.39560317993164,174.87179565429688,145.05494689941406,116.84981536865234,,1543383740.5527098
1224,0.0,141.42857360839844,174.87179565429688,0.8058608174324036,,1543383740.5566158
1225,1112.087890625,163.1868133544922,152.3076934814453,109.19413757324219,,1543383740.5605218
1226,106.37362670898438,204.6886444091797,115.23809814453125,263.1135559082031,,1543383740.5644279
1227,591.098876953125,187.36264038085938,127.72893524169922,148.6813201904297,,1543383740.568334
1228,0.0,151.5018310546875,173.6630096435547,16.117216110229492,,1543383740.57224
1229,706.3369750976562,173.6630096435547,206.3003692626953,182.5274658203125,,1543383740.5761461
1230,171.24542236328125,230.07325744628906,204.2857208251953,453.29669189453125,,1543383740.5800521
1231,1002.087890625,219.59707641601562,183.3333282470703,349.74359130859375,,1543383740.5839584
1232,0.0,159.56044006347656,175.6776580810547,62.4542121887207,,1543383740.5878644
1233,591.5018310546875,159.96336364746094,197.8388214111328,120.87911987304688,,1543383740.5917704
1234,162.7838897705078,206.3003692626953,175.6776580810547,331.6117248535156,,1543383740.5956767
1235,1083.076904296875,198.64468383789062,106.37362670898438,212.74725341796875,,1543383740.5995827
1236,0.0,162.7838897705078,136.996337890625,43.516483306884766,,1543383740.6034887
1237,236.5201416015625,155.93406677246094,202.27105712890625,86.22710418701172,,1543383740.6073947
1238,1569.4139404296875,179.7069549560547,165.60440063476562,211.53846740722656,,1543383740.611301
1239,1437.6556396484375,197.03297424316406,91.46520233154297,206.7032928466797,,1543383740.615207
1240,157.14285278320312,175.6776580810547,124.1025619506836,83.003662109375,,1543383740.619113
1241,0.0,184.54212951660156,256.26373291015625,221.2087860107422,,1543383740.623019
1242,953.3333129882812,205.89743041992188,268.3516540527344,385.6044006347656,,1543383740.6269252
1243,153.91941833496094,192.60073852539062,111.61172485351562,233.6996307373047,,1543383740.6308312
1244,720.4395751953125,184.13919067382812,106.37362670898438,121.68498229980469,,1543383740.6347373
1245,0.0,161.1721649169922,188.974365234375,74.94505310058594,,1543383740.6386433
1246,672.087890625,166.8131866455078,204.2857208251953,173.6630096435547,,1543383740.6425495
1247,170.43955993652344,196.63003540039062,135.38461303710938,276.00732421875,,1543383740.6464555
1248,1041.5750732421875,192.1977996826172,103.15018463134766,178.4981689453125,,1543383740.6503615
1249,0.0,176.08058166503906,199.85348510742188,144.24908447265625,,1543383740.6542675
1250,523.003662109375,157.14285278320312,217.9853515625,144.24908447265625,,1543383740.6581738
1251,140.62271118164062,168.8278350830078,122.0879135131836,168.42491149902344,,1543383740.6620798
1252,1149.96337890625,195.8241729736328,99.52381134033203,209.5238037109375,,1543383740.6659858
1253,0.0,186.55677795410156,192.1977996826172,186.55677795410156,,1543383740.6698918
1254,140.21978759765625,164.7985382080078,246.59339904785156,180.91575622558594,,1543383740.673798
1255,1444.5054931640625,163.1868133544922,160.76922607421875,178.4981689453125,,1543383740.677704
1256,1530.7325439453125,199.85348510742188,108.38827514648438,250.21978759765625,,1543383740.68161
1257,252.23443603515625,214.76190185546875,215.1648406982422,323.9560546875,,1543383740.6855164
1258,0.0,159.96336364746094,230.87911987304688,140.21978759765625,,1543383740.6894224
1259,869.120849609375,147.06959533691406,153.5164794921875,90.25640869140625,,1543383740.6933284
1260,174.06593322753906,194.2124481201172,114.83516693115234,254.24908447265625,,1543383740.6972344
1261,830.4395751953125,203.07691955566406,157.14285278320312,259.4871826171875,,1543383740.7011406
1262,0.0,164.39559936523438,212.34432983398438,130.54945373535156,,1543383740.7050467
1263,657.1795043945312,141.42857360839844,168.02197265625,62.85714340209961,,1543383740.7089527
1264,172.05128479003906,203.88278198242188,154.72528076171875,309.4505615234375,,1543383740.7128587
1265,1050.842529296875,239.74359130859375,209.92674255371094,445.6410217285156,,1543383740.716765
1266,0.0,172.85714721679688,200.6593475341797,145.05494689941406,,1543383740.720671
1267,439.5970764160156,133.77288818359375,165.60440063476562,8.461538314819336,,1543383740.724577
1268,102.34432220458984,197.43589782714844,185.34799194335938,315.8974304199219,,1543383740.728483
1269,1240.6226806640625,231.6849822998047,184.94505310058594,421.4652099609375,,1543383740.7323892
1270,0.0,168.02197265625,145.45787048339844,88.24176025390625,,1543383740.7362952
1271,29.010988235473633,145.05494689941406,180.10989379882812,16.117216110229492,,1543383740.7402012
1272,1252.7105712890625,171.64834594726562,169.23077392578125,174.4688720703125,,1543383740.7441072
1273,24.981685638427734,198.64468383789062,105.16483306884766,237.72894287109375,,1543383740.7480135
1274,450.0732727050781,180.10989379882812,117.25274658203125,102.74725341796875,,1543383740.7519195
1275,0.0,155.12820434570312,186.15383911132812,45.53113555908203,,1543383740.7558255
1276,760.7326049804688,176.88644409179688,208.7179412841797,207.91209411621094,,1543383740.7597315
1277,170.8424835205078,217.9853515625,167.2161102294922,369.4871826171875,,1543383740.7636378
1278,924.7252807617188,206.3003692626953,153.5164794921875,259.0842590332031,,1543383740.7675438
1279,0.0,164.7985382080078,188.1685028076172,80.18315124511719,,1543383740.7714498
